timestamp,package_num,Fp1,Fp2,F3,F4,C3,C4,P3,P4,O1,O2,F7,F8,T3,T4,Pz,Oz,marker
1741737600.000000,0,3.0054,16.0633,-3.5265,21.0044,-22.5869,10.5872,10.9058,16.6540,16.0533,-9.0012,-15.6946,1.5340,16.1693,12.2570,6.5881,-15.4712,0.0
1741737600.004000,1,3.6796,12.3720,-5.0929,17.3549,-21.9833,5.1365,7.9175,16.3827,16.5291,-10.7282,-10.8856,3.2496,19.6674,11.0856,10.3813,-16.4436,0.0
1741737600.008000,2,0.7212,3.7451,-5.6869,15.9857,-18.1996,0.9870,2.7314,15.5730,12.8326,-9.7141,-8.0336,3.9327,20.2668,15.0282,11.5231,-20.1117,0.0
1741737600.012000,3,2.8434,1.7123,-3.8281,11.9321,-16.8139,-4.1179,0.9329,12.7916,10.0465,-11.2689,-4.8485,9.9272,18.4563,14.0170,13.3081,-18.1181,0.0
1741737600.016000,4,4.8594,-0.2447,-3.7467,9.0265,-15.1717,-11.6217,-0.3397,11.1507,6.0088,-4.0671,-1.4019,10.0092,19.3617,14.0389,16.9065,-16.6077,0.0
1741737600.020000,5,4.6414,2.4913,-0.4941,7.8130,-10.2736,-19.9133,-2.5744,7.3572,1.2830,-6.0050,-4.5633,10.5685,20.2366,15.5171,17.9950,-16.0243,0.0
1741737600.024000,6,5.3232,-1.7445,0.7176,7.4298,-6.6586,-27.7094,-5.0897,3.9133,0.1650,-8.7410,-9.2625,11.3382,17.9689,16.5938,17.6910,-13.4403,0.0
1741737600.028000,7,3.9488,-5.0993,1.9918,2.8917,-2.7616,-32.0962,-8.5859,1.3335,-0.3822,-7.5731,-12.4695,9.2552,16.3373,17.3603,15.8146,-11.4386,0.0
1741737600.032000,8,6.1308,-7.0607,2.4372,0.0877,-0.7425,-33.0149,-8.8891,0.6024,-1.2051,-7.5775,-11.8103,6.3836,11.6068,17.5091,15.4515,-9.6468,0.0
1741737600.036000,9,6.0053,-10.5644,3.4557,-4.6871,-4.7278,-34.3280,-9.2654,1.3016,-2.1078,-10.3111,-12.5328,7.2209,7.4948,20.4318,14.3453,-7.3011,0.0
1741737600.040000,10,2.8670,-11.1547,3.5594,-10.4055,-8.9062,-32.2146,-12.0744,1.0901,-0.8400,-8.3568,-8.4462,7.1901,0.5172,19.1108,11.7297,-5.5010,0.0
1741737600.044000,11,6.0870,-13.5474,4.8318,-15.3682,-12.0196,-29.9919,-14.1818,-0.1205,-0.4846,-7.0690,-9.2626,5.4676,-6.8526,18.1323,8.9299,-2.6454,0.0
1741737600.048000,12,4.3997,-13.1639,4.2239,-10.1851,-13.5916,-24.3845,-18.2230,3.6814,2.0700,-9.6747,-6.8335,1.4419,-14.9923,14.9802,7.3797,1.4714,0.0
1741737600.052000,13,0.7079,-13.3757,3.5309,-15.8120,-12.2457,-19.0654,-18.8966,0.1305,2.8695,-9.1433,-4.5301,-0.9661,-19.9265,12.5996,4.8132,3.6579,0.0
1741737600.056000,14,0.7498,-11.4584,6.7045,-19.8612,-11.9921,-13.2524,-18.0869,0.2822,7.3580,-8.2436,-2.1609,-4.2612,-24.8807,10.0465,1.6032,9.7066,0.0
1741737600.060000,15,-0.0862,-9.4904,3.6327,-20.7399,-8.6994,-6.0831,-18.5039,3.7145,7.8059,-7.4947,1.2639,-6.8740,-24.3041,7.6316,3.3563,6.9947,0.0
1741737600.064000,16,-0.5222,-8.7127,0.2016,-22.5967,-7.6092,-0.8349,-17.3225,3.4048,10.5672,-6.8553,6.8309,-7.8933,-28.4655,3.8321,1.6537,8.9249,0.0
1741737600.068000,17,3.7184,-8.2836,8.5764,-18.9189,-7.0604,5.7039,-17.6698,3.7405,10.8728,-3.9132,11.8883,-4.2945,-27.1641,1.8922,0.8723,7.9448,0.0
1741737600.072000,18,1.1433,-8.5749,7.3306,-18.4373,-1.7999,7.8790,-14.7491,1.0878,10.0330,-4.3548,15.3286,-6.9588,-24.4414,1.0403,0.4654,7.1501,0.0
1741737600.076000,19,-5.5809,-7.9378,6.1308,-13.8785,1.1864,9.9455,-11.1889,-2.3277,12.0267,-3.3305,16.4690,-10.3777,-24.3826,-1.6359,-3.5164,11.2088,0.0
1741737600.080000,20,-10.4737,-8.9071,1.8302,-9.4480,3.3133,13.1817,-8.9408,-5.1667,8.5177,-3.0504,21.4443,-10.9634,-19.9594,-1.7479,-4.1307,6.9628,0.0
1741737600.084000,21,-13.3174,-6.8505,0.4800,-5.4511,6.6011,13.9238,-8.8831,-6.7022,6.0349,-3.0054,18.8269,-12.5807,-14.9127,-5.1837,-3.7993,8.2292,0.0
1741737600.088000,22,-12.8538,-4.7093,-2.9268,-0.8003,10.4279,13.2655,-8.1701,-6.8636,2.6322,-4.4506,19.2087,-16.3102,-8.6568,-6.1922,-7.1157,5.6093,0.0
1741737600.092000,23,-15.2973,-8.6581,-4.5244,0.0018,14.5293,11.4831,-6.0397,-6.1901,-1.6621,-3.7301,16.1014,-15.0703,-0.6429,-6.5144,-8.0247,2.5233,0.0
1741737600.096000,24,-17.5493,-11.5990,-6.7009,-0.1490,19.5899,12.1445,-1.3388,-4.4637,-6.8054,-2.1429,18.7322,-12.9153,6.9268,-5.2033,-9.5953,1.1926,0.0
1741737600.100000,25,-20.1397,-14.5006,-4.8700,-2.2703,23.9435,11.0488,-0.5644,-2.2240,-10.9974,0.5180,20.6325,-16.9852,16.2368,-5.0830,-7.7196,-2.5880,0.0
1741737600.104000,26,-18.0502,-15.1927,-7.8246,-2.2872,22.3475,6.2821,4.5918,-1.0937,-14.4637,4.9699,18.2455,-19.0763,22.9195,-6.4003,-8.3097,-3.2278,0.0
1741737600.108000,27,-19.9271,-16.1060,-11.6444,-3.6924,26.6729,4.2912,4.8256,1.7709,-16.8588,7.6290,18.4137,-17.5920,26.8404,-8.2628,-9.4215,-7.0642,0.0
1741737600.112000,28,-17.7981,-16.0389,-14.7321,-8.2703,25.9662,2.9592,9.7195,5.0777,-18.1569,11.2532,14.6571,-16.7601,31.1378,-7.6044,-9.6760,-4.8574,0.0
1741737600.116000,29,-16.8545,-17.8049,-16.8851,-9.5162,21.8845,1.4195,11.6887,9.9811,-13.1210,15.4769,13.3741,-14.2618,34.3363,-6.2855,-8.8048,-2.6915,0.0
1741737600.120000,30,-13.4378,-16.0896,-17.4966,-12.2323,20.3196,-0.8826,14.7995,12.5216,-9.7872,20.3532,11.5362,-8.9047,33.0325,-7.1273,-5.6377,1.6970,0.0
1741737600.124000,31,-8.3476,-11.4329,-21.1091,-9.8278,16.8596,0.1509,13.5923,13.5503,-6.2438,21.1505,10.1514,-4.5144,35.4637,-4.5142,-4.0647,3.1299,0.0
1741737600.128000,32,-4.3250,-6.5626,-20.1933,-10.0438,12.2150,1.8570,14.1597,19.2538,1.5497,26.2886,7.9087,0.9350,32.6696,-3.4239,-0.3240,5.6408,0.0
1741737600.132000,33,1.2368,-2.4709,-19.0204,-10.0861,10.2361,2.8892,13.8977,22.0607,8.0587,28.3632,3.9813,0.6918,29.0891,-1.3275,4.4156,13.8257,0.0
1741737600.136000,34,9.6885,6.5044,-20.5642,-9.4668,6.7115,3.8608,16.8082,22.8071,14.1349,30.4361,1.5671,7.0224,27.5550,0.3391,12.2991,16.5006,0.0
1741737600.140000,35,14.5778,11.0274,-17.8029,-4.2131,4.5228,4.4225,13.9612,25.7615,22.2617,28.3925,-1.5121,15.6396,25.9586,1.5618,16.8648,20.6335,0.0
1741737600.144000,36,20.7008,14.1540,-14.7110,-7.7230,-0.0474,6.4134,12.8403,25.0293,27.0909,24.6665,-2.7715,18.3342,21.4312,3.8591,20.7834,22.1505,0.0
1741737600.148000,37,23.5776,16.6907,-13.0122,-2.7352,-3.4543,8.1885,7.2558,24.3765,33.6947,21.6959,-5.9194,23.0187,18.8237,4.3788,27.3788,23.2659,0.0
1741737600.152000,38,27.9400,19.1014,-7.5749,-0.2751,-7.0717,12.6564,7.3540,19.3447,38.7020,16.5774,-9.6563,27.2226,14.8023,5.3707,28.4023,20.9279,0.0
1741737600.156000,39,31.6785,22.1946,-2.9587,0.8055,-11.0076,13.9847,5.7772,15.6219,40.4559,9.5865,-11.8281,34.9263,9.9757,10.4275,31.3601,21.5025,0.0
1741737600.160000,40,36.6299,24.3282,1.5496,5.3825,-13.2169,14.7819,6.1025,11.3934,38.8996,2.2057,-15.6031,34.2983,9.2073,10.6694,31.7217,18.0509,0.0
1741737600.164000,41,37.2090,23.7850,8.4462,11.5734,-14.3398,14.4139,0.8153,5.7887,35.7833,-5.0852,-18.8975,37.4840,7.8045,13.6512,30.7104,12.4877,0.0
1741737600.168000,42,36.8911,23.2303,16.9121,16.1074,-14.4102,15.8549,0.6080,2.9766,30.1105,-12.4999,-18.4780,36.5036,1.5710,17.9089,29.9987,5.1150,0.0
1741737600.172000,43,36.3990,21.8042,23.9453,19.2963,-11.8736,16.4435,4.2360,-2.6040,23.6824,-16.7894,-18.8400,36.2654,1.6176,22.3810,27.8739,0.7390,0.0
1741737600.176000,44,34.8586,21.4518,32.8470,24.2310,-10.8584,13.6786,6.4410,-5.3089,15.9450,-22.3648,-19.2375,31.7235,3.7518,24.7468,23.1201,-5.1446,0.0
1741737600.180000,45,32.5592,18.3874,36.7942,23.1520,-9.2800,10.5583,6.3313,-7.6552,5.4305,-24.2688,-15.1141,29.8768,-1.3737,26.9025,16.0953,-12.8498,0.0
1741737600.184000,46,30.3823,16.0616,46.1208,25.8880,-7.5533,7.5742,9.0450,-12.5161,-1.9537,-28.0673,-10.8538,23.2667,-1.7923,24.9871,9.6342,-22.3259,0.0
1741737600.188000,47,26.6941,12.8370,46.2809,26.5786,-9.3293,2.9572,7.9930,-14.5168,-11.8664,-26.7498,-8.1583,19.0197,-1.0735,25.5236,-1.6071,-24.8372,0.0
1741737600.192000,48,22.9482,10.9438,47.5619,22.7144,-4.7770,-2.6359,7.4066,-15.1653,-20.0804,-26.6149,-3.9566,13.9620,-5.4684,22.3230,-7.9957,-29.1877,0.0
1741737600.196000,49,17.4485,4.7971,47.8219,22.4178,-7.2845,-6.4441,4.9016,-13.6127,-26.9461,-20.3911,2.1744,5.7783,-5.9032,18.8333,-15.7611,-32.2289,0.0
1741737600.200000,50,14.4148,2.4105,46.7385,18.5090,-3.4679,-9.0855,-0.9982,-16.2002,-33.2155,-13.2230,7.8399,0.7230,-10.4741,13.7847,-22.1393,-31.6179,0.0
1741737600.204000,51,9.7839,1.9583,42.0568,15.5345,-2.1684,-13.4712,-1.0707,-15.9829,-38.0017,-8.4108,14.1571,-3.3072,-12.1085,8.6122,-24.6635,-31.3818,0.0
1741737600.208000,52,5.9958,-1.3480,38.6480,14.9565,-2.0566,-15.7277,-3.1759,-14.4894,-39.1995,-0.9227,16.6739,-9.3599,-14.1018,3.5244,-31.8018,-32.1548,0.0
1741737600.212000,53,0.3568,-0.4777,30.5363,8.5049,-0.0464,-20.9243,-5.5524,-13.3954,-42.7098,6.2201,19.8082,-12.3025,-15.1185,-5.1158,-33.1365,-23.5326,0.0
1741737600.216000,54,-4.9009,-1.4815,24.3239,5.1127,4.6315,-22.3970,-9.1107,-11.4245,-38.9864,11.7573,25.8537,-14.5898,-17.1540,-11.1007,-35.5812,-18.1672,0.0
1741737600.220000,55,-10.1845,-6.8302,18.0525,1.4297,9.8857,-22.0370,-10.8553,-12.6580,-36.4742,18.1538,25.6975,-16.0848,-18.2473,-15.4646,-32.9057,-12.7161,0.0
1741737600.224000,56,-12.5993,-8.6253,10.2338,-3.9623,11.5939,-21.7987,-13.8340,-15.1655,-31.7015,22.9495,30.9085,-18.6506,-18.6504,-23.3739,-30.0218,-7.1621,0.0
1741737600.228000,57,-17.1163,-9.4873,1.2297,-7.0236,13.4967,-19.2713,-18.4089,-13.5316,-26.1030,24.4025,31.7181,-20.8462,-17.8716,-27.6503,-26.3814,0.3050,0.0
1741737600.232000,58,-20.1986,-9.3785,-8.7551,-12.3826,17.3850,-15.3035,-19.1468,-13.2764,-17.8691,23.8858,29.4971,-19.2211,-16.2867,-33.4074,-23.1285,6.5821,0.0
1741737600.236000,59,-22.8577,-13.4772,-14.7331,-11.1041,18.5895,-13.0125,-19.1010,-13.5872,-11.7291,23.1308,26.9756,-17.5018,-17.4203,-38.2997,-18.5766,11.8473,0.0
1741737600.240000,60,-24.6887,-13.6639,-18.4056,-12.5263,19.8920,-8.1257,-18.3380,-13.0066,-4.3309,22.8109,22.8490,-16.6232,-11.2235,-38.7561,-17.1382,18.1741,0.0
1741737600.244000,61,-28.7660,-11.0937,-24.3802,-8.8919,21.4104,-1.8453,-16.0176,-14.4526,0.9988,17.7722,18.6546,-12.9117,-12.3761,-36.3006,-9.5308,20.9071,0.0
1741737600.248000,62,-29.1378,-11.0409,-26.7260,-5.9386,22.3658,2.5252,-14.9274,-12.3506,6.7695,12.5006,13.6943,-16.0238,-9.1071,-32.6086,-5.7108,21.3357,0.0
1741737600.252000,63,-29.2669,-10.3428,-29.9252,-3.9494,21.8987,3.8776,-11.1384,-12.0259,11.9782,6.1659,8.2017,-12.5305,-2.8561,-28.1181,-2.3187,21.5711,0.0
1741737600.256000,64,-24.5000,-8.0042,-31.4851,-2.6723,21.3220,8.8959,-6.1206,-7.9053,14.6099,0.2955,2.5447,-11.8313,1.6911,-25.3162,0.4946,22.6157,0.0
1741737600.260000,65,-19.6163,-8.9874,-30.9615,-3.4902,19.6542,11.9552,0.7361,-2.4474,20.2217,-2.5676,-1.0420,-11.3590,6.6605,-21.6827,3.6626,18.8886,0.0
1741737600.264000,66,-16.7308,-6.1508,-30.3717,0.1162,16.0919,13.7271,4.4050,-0.8315,20.4540,-8.2940,-5.5886,-8.4851,10.7533,-14.2024,4.5197,19.6654,0.0
1741737600.268000,67,-14.5710,-3.3965,-29.9938,3.1112,9.8623,14.8340,8.8469,0.1983,20.9169,-10.3879,-10.7686,-5.0347,17.6300,-7.3498,5.4884,14.6091,0.0
1741737600.272000,68,-9.6338,-1.4516,-28.0475,4.6599,4.0814,18.2219,11.8155,5.9597,22.3481,-13.3296,-13.8892,0.9347,18.9167,0.9265,3.7544,9.6596,0.0
1741737600.276000,69,-0.7686,4.0459,-25.6270,5.8345,-2.0690,20.9508,16.8613,8.2911,24.6770,-11.2715,-16.2809,1.7501,21.9762,6.3554,4.7148,8.7211,0.0
1741737600.280000,70,5.6791,9.0852,-22.3007,8.6649,-7.2413,19.4368,19.6260,13.0425,21.9291,-8.7717,-20.2697,6.1510,21.3262,12.1857,6.5163,5.7689,0.0
1741737600.284000,71,14.9741,9.6687,-18.5895,9.6670,-12.1839,17.4304,21.1999,16.0302,20.7290,-6.4907,-21.9938,9.3711,22.9772,18.3019,6.9581,0.6172,0.0
1741737600.288000,72,22.1107,14.1547,-13.6066,10.5288,-15.3928,14.4759,20.5837,20.1380,20.1057,-4.3044,-22.1981,16.0383,25.1651,23.6599,10.1927,0.9234,0.0
1741737600.292000,73,26.7046,14.8850,-8.9944,10.5148,-18.8314,13.1283,18.4705,23.2153,17.6387,0.9505,-24.5117,17.0738,21.7632,26.6357,11.4258,0.5295,0.0
1741737600.296000,74,30.5117,17.2002,-3.9671,13.2294,-21.5372,10.4428,19.0785,21.4006,16.5849,4.5138,-22.0450,19.3458,23.3790,26.9777,13.8818,-1.6832,0.0
1741737600.300000,75,35.8787,19.1689,0.9658,13.4787,-25.2737,8.8518,17.5613,20.7281,12.2904,10.1178,-21.5065,24.3280,22.8905,27.9249,15.5845,-3.0232,0.0
1741737600.304000,76,35.9164,18.4890,5.9102,15.9508,-25.7311,5.8654,13.7796,21.3431,12.7916,12.1871,-21.2763,22.6784,17.5147,26.7252,17.8204,-3.5000,0.0
1741737600.308000,77,36.9811,16.4332,6.4673,11.9082,-24.1095,4.3713,7.8698,17.2086,11.4271,13.9421,-24.0173,27.2608,13.3574,26.4692,16.8282,-0.6245,0.0
1741737600.312000,78,34.3688,14.4692,11.0698,11.7432,-24.1195,2.7056,4.9743,13.3122,9.8565,17.9854,-24.0534,29.2692,9.8779,27.3054,18.7329,-2.5971,0.0
1741737600.316000,79,33.7631,13.3178,14.2771,11.1194,-24.3818,0.7344,-0.2965,11.3520,4.6922,13.8751,-21.8512,28.4209,7.0991,26.9837,19.8141,-5.0598,0.0
1741737600.320000,80,29.8594,13.3495,15.8258,12.3772,-23.3662,-2.5031,-4.8970,7.7621,2.0753,10.8669,-20.6340,27.9403,2.1189,29.7687,20.6345,-5.9933,0.0
1741737600.324000,81,27.2813,10.9659,19.5671,9.9109,-19.6830,-4.5572,-7.9830,3.1118,-1.1309,8.1729,-20.5245,24.0505,-0.0961,25.6341,20.6954,-6.7460,0.0
1741737600.328000,82,21.1527,6.1605,21.2741,6.3502,-16.9801,-8.5018,-9.9466,3.6487,-4.1192,2.4822,-17.4195,23.0272,-4.8829,25.1328,16.8327,-8.5401,0.0
1741737600.332000,83,17.2768,-1.2199,24.3653,5.5500,-12.4329,-14.8223,-13.1742,-2.1504,-7.5844,-1.0945,-14.1748,19.0203,-6.4564,24.9507,13.4771,-8.2646,0.0
1741737600.336000,84,8.9645,-5.7434,25.5170,2.1867,-9.8945,-16.1243,-11.3543,-3.7812,-8.3595,-10.6786,-12.3370,13.8567,-12.5426,21.7388,12.2009,-10.9037,0.0
1741737600.340000,85,5.8260,-9.8056,26.5015,-4.2760,-7.1528,-18.7804,-14.7785,-5.5611,-12.5997,-15.1874,-5.9044,8.0256,-13.0471,18.1608,6.4903,-14.4359,0.0
1741737600.344000,86,0.5188,-16.1139,25.6987,-7.6666,-5.3779,-17.4902,-14.6341,-5.5914,-13.3361,-20.2306,-1.0697,3.1143,-17.1315,15.7362,3.8218,-14.1067,0.0
1741737600.348000,87,-4.0383,-17.6711,24.9323,-12.9229,-5.2686,-20.4844,-12.7323,-6.0648,-15.2531,-25.0479,6.0512,-4.1549,-19.2876,14.1347,-2.0874,-16.0191,0.0
1741737600.352000,88,-8.7265,-19.4414,24.3056,-17.4170,-2.4847,-20.0968,-10.9223,-8.6171,-16.5072,-29.0603,10.0447,-8.2321,-19.3586,11.4204,-9.4153,-18.3992,0.0
1741737600.356000,89,-15.2700,-25.9325,19.4011,-20.2912,0.5504,-19.9557,-9.0676,-5.9738,-14.8187,-31.9267,13.3744,-15.0029,-19.9419,10.0890,-14.2234,-12.6130,0.0
1741737600.360000,90,-16.0251,-25.7591,18.1555,-22.1451,2.2484,-19.5562,-8.0365,-5.0543,-17.1396,-32.0141,16.7289,-17.6583,-21.9267,7.1008,-16.8805,-12.0116,0.0
1741737600.364000,91,-18.4745,-24.4304,16.8962,-23.5705,5.8380,-16.6684,-5.3756,-4.3311,-13.9337,-28.8191,23.1358,-24.6239,-21.0589,5.0682,-20.9035,-8.4816,0.0
1741737600.368000,92,-17.9356,-25.0616,13.3405,-26.3935,9.2071,-13.9818,-4.0978,-2.3662,-9.4946,-25.1197,28.0717,-26.7257,-16.3919,1.2943,-22.1239,-6.7833,0.0
1741737600.372000,93,-19.0920,-20.5635,8.1411,-24.3488,9.2786,-11.8101,-4.0673,-3.0081,-5.2333,-19.2638,32.1852,-28.6938,-17.0241,-0.4084,-22.7872,0.6806,0.0
1741737600.376000,94,-18.6460,-17.6367,4.1883,-24.9597,11.0358,-7.8132,-2.9250,-4.5075,-1.1888,-12.3762,33.7564,-30.0175,-13.7649,-4.9052,-24.0226,3.4684,0.0
1741737600.380000,95,-21.4239,-16.7073,-0.1791,-26.1274,13.0022,-4.2721,-3.9767,-2.7253,4.9584,-5.7241,35.0970,-28.7657,-11.1477,-9.6015,-22.3220,11.7776,0.0
1741737600.384000,96,-20.9291,-12.5085,-7.0312,-24.0491,14.2843,1.3528,-4.8908,-3.3851,8.3819,0.5331,34.1850,-26.3145,-9.0204,-12.1148,-18.9894,15.1500,0.0
1741737600.388000,97,-22.9326,-8.5294,-9.4991,-21.3159,20.3608,3.7431,-4.8161,-3.9760,11.1998,8.5272,34.6370,-25.4574,-6.0891,-16.2685,-14.0067,19.6820,0.0
1741737600.392000,98,-21.3908,-5.9809,-14.9059,-18.1359,21.5724,7.6882,-4.3765,-3.3088,15.8305,14.1512,31.0577,-21.9104,-2.2666,-17.4642,-8.5896,23.6429,0.0
1741737600.396000,99,-19.6160,0.3066,-21.7206,-10.3310,21.2391,13.7157,-4.8416,-5.8739,18.6144,19.1728,26.8317,-18.6688,0.5854,-19.1790,-3.1275,30.2673,0.0
1741737600.400000,100,-15.8158,4.9739,-24.5522,-4.8812,22.2683,16.7287,-3.7277,-7.4211,17.6277,23.1157,24.1874,-12.4831,5.5850,-21.0744,3.5261,28.7329,0.0
1741737600.404000,101,-14.6741,8.2034,-26.3416,0.7861,24.8935,20.2911,-2.1359,-5.6463,18.1061,27.0701,20.2509,-6.7219,7.3454,-20.3275,8.0745,28.5690,0.0
1741737600.408000,102,-15.3504,9.9139,-30.5500,6.8009,27.0804,21.5855,-1.0188,-4.4561,17.2481,26.2130,13.5921,-4.3103,12.6967,-18.1363,15.8006,25.7039,0.0
1741737600.412000,103,-12.3035,12.3235,-28.4726,11.2924,26.9631,23.1222,-0.8212,-1.1388,12.8691,27.1938,8.0395,1.3048,15.9420,-15.4816,17.5742,23.2924,0.0
1741737600.416000,104,-12.2010,14.3041,-30.8348,18.0397,27.7518,24.9051,4.2024,-2.0395,9.9937,23.4156,2.3018,2.4552,19.4336,-10.7603,21.0151,19.4189,0.0
1741737600.420000,105,-8.8515,15.2552,-28.6815,21.3583,24.5428,26.7231,4.9936,0.8811,6.2073,19.9429,-0.9730,3.3942,21.3060,-9.4013,23.0009,14.0893,0.0
1741737600.424000,106,-4.5477,16.6292,-28.9519,27.1113,20.3241,27.3306,9.9530,4.0612,4.7883,19.7488,-6.7051,6.8423,21.5787,-5.6954,25.1603,11.2741,0.0
1741737600.428000,107,-0.0422,16.5552,-24.3967,28.6992,18.5667,27.5771,15.1890,7.1795,1.8240,14.8809,-9.5661,11.9390,22.0902,-1.4338,22.7236,6.5456,0.0
1741737600.432000,108,0.5693,18.2320,-19.2200,31.9323,13.7058,25.2438,19.1803,10.1710,-1.8432,15.2310,-15.1508,10.3727,23.8668,6.5601,24.0992,2.5229,0.0
1741737600.436000,109,5.5382,19.5320,-18.5163,35.4748,9.0914,26.0616,21.5425,14.5906,-3.3234,11.5623,-15.4645,12.6001,25.7327,9.5078,19.9452,-1.0114,0.0
1741737600.440000,110,6.5268,22.2842,-12.6037,35.4748,5.3919,23.6735,24.2030,16.2734,-4.6437,8.9850,-17.2315,10.0893,23.2275,14.4632,14.0928,-5.7027,0.0
1741737600.444000,111,10.3118,22.4728,-8.9083,36.6857,-2.3183,25.6862,26.6467,18.2405,-5.2066,6.5606,-16.9679,7.4334,19.3220,17.6966,10.6271,-6.6392,0.0
1741737600.448000,112,14.2686,19.9313,-7.7623,35.3242,-6.4969,22.3646,29.5259,22.2010,-1.9906,5.7936,-14.0821,6.3921,18.0717,21.1537,7.3563,-8.0866,0.0
1741737600.452000,113,17.4934,21.2237,-2.3002,28.5440,-10.6187,20.3800,30.2033,25.0118,-1.8455,1.8812,-11.0455,4.3924,14.8686,21.3503,3.9271,-9.0243,0.0
1741737600.456000,114,23.0464,20.9655,1.5254,24.6679,-13.0474,16.5966,30.4621,24.7900,1.4398,2.0055,-9.0819,8.7848,17.0612,21.0919,-1.1455,-8.5445,0.0
1741737600.460000,115,23.4398,20.8562,3.7158,20.6179,-16.3025,15.2238,25.5567,24.5442,4.6429,0.1095,-6.8508,9.5092,11.0064,18.4723,-2.5612,-3.5173,0.0
1741737600.464000,116,24.1228,19.5744,7.4160,13.8518,-18.9310,10.4383,24.5847,19.0015,7.9313,1.3171,-6.1564,8.2763,10.9041,15.1955,-4.7542,-3.1216,0.0
1741737600.468000,117,27.6641,18.5945,10.2586,11.2028,-23.4625,8.2312,21.3135,16.5092,11.0631,1.6420,-2.9755,10.3625,8.4297,13.2475,-6.2325,-3.5862,0.0
1741737600.472000,118,29.6126,15.8061,13.0620,5.9267,-20.8941,3.9891,17.5639,11.6451,11.0382,0.0128,0.1863,9.6821,5.9980,8.8363,-5.0646,-0.6524,0.0
1741737600.476000,119,27.4890,12.8323,14.3846,1.8310,-19.8441,0.5856,13.7032,6.6960,10.8258,0.9436,4.1161,13.2582,6.0247,5.2900,-3.1940,2.7427,0.0
1741737600.480000,120,28.4075,8.7834,19.4764,-3.5209,-17.7966,-4.7183,9.8855,3.5540,12.7124,0.3834,3.0780,12.9241,4.9092,1.9586,-6.0545,1.0962,0.0
1741737600.484000,121,24.7409,6.8628,22.6840,-4.1110,-14.9082,-10.9190,4.5311,-3.9328,8.5829,-2.1935,4.1212,17.8491,4.0541,-1.2380,-0.4409,4.0056,0.0
1741737600.488000,122,21.8780,1.2949,22.8547,-8.9233,-8.0044,-15.4325,0.6506,-8.2349,10.2244,-2.6139,4.0574,17.0591,4.4563,-4.7436,1.2032,-0.3752,0.0
1741737600.492000,123,16.7576,0.8449,28.6596,-7.8045,-4.2240,-15.2051,-5.4071,-10.5688,6.2752,-2.9435,5.9258,16.7191,6.9894,-8.0357,2.3844,-0.1805,0.0
1741737600.496000,124,15.0513,-1.3099,29.4854,-12.5491,2.6444,-19.1114,-7.5054,-19.0159,1.6909,-3.9766,5.9717,16.0505,6.8136,-11.6183,2.0821,-3.0650,0.0
1741737600.500000,125,13.3636,-2.8438,32.1736,-11.8875,2.9717,-21.3092,-11.9936,-21.0722,-0.4264,-8.8045,5.3968,14.1654,7.7728,-15.6467,2.3074,-6.0927,0.0
1741737600.504000,126,8.7625,-6.3462,31.5202,-11.3271,7.3761,-23.1603,-14.3250,-23.7475,-3.4628,-6.4389,3.8482,14.6263,8.4750,-13.8482,2.2940,-8.1316,0.0
1741737600.508000,127,4.2266,-8.9181,29.8041,-11.7343,10.6088,-23.7833,-16.6909,-23.4070,-8.9634,-8.0895,4.1828,15.1642,8.3383,-11.8725,0.8536,-12.0488,0.0
1741737600.512000,128,1.2047,-14.1673,31.5390,-8.6503,10.9808,-21.2712,-16.5659,-24.7821,-13.0808,-7.5673,2.3318,10.3460,3.2383,-11.2904,2.3349,-15.0533,0.0
1741737600.516000,129,-1.5113,-13.6868,27.5713,-10.2218,12.5749,-21.5227,-17.5397,-19.3372,-15.4857,-7.4508,3.9184,9.0668,3.9961,-12.6476,-0.2745,-16.3292,0.0
1741737600.520000,130,-5.0152,-13.9129,26.9698,-9.1483,10.8786,-19.9995,-16.4462,-18.1560,-19.0722,-7.7578,2.8315,6.3628,0.3746,-10.4708,-2.5560,-22.7432,0.0
1741737600.524000,131,-5.9113,-12.4537,19.3170,-11.5287,13.2603,-18.2581,-19.1797,-14.6229,-22.5104,-8.6200,5.4755,5.1217,-0.6576,-10.9844,-6.4732,-20.2817,0.0
1741737600.528000,132,-8.1059,-12.5287,17.6279,-9.3891,10.4567,-16.3906,-19.2775,-9.9542,-22.1113,-7.7532,3.7997,1.1354,-3.3617,-10.1342,-10.1191,-21.3689,0.0
1741737600.532000,133,-4.8841,-11.1669,11.7500,-8.3320,8.9160,-14.3053,-21.3179,-7.9775,-22.9467,-6.7986,3.0835,-0.0521,-3.6570,-8.1663,-11.7932,-21.9512,0.0
1741737600.536000,134,-5.3846,-9.1216,8.1744,-6.4440,8.7936,-6.5756,-17.5179,-3.9319,-22.8572,-5.0622,5.8201,-1.0863,-6.4789,-8.3927,-13.6485,-21.4765,0.0
1741737600.540000,135,-3.7321,-9.9182,4.9647,-7.5033,5.4865,-3.7192,-17.2220,-3.4375,-22.7717,-4.8031,7.1045,-2.4311,-7.9958,-7.1897,-14.0073,-17.7462,0.0
1741737600.544000,136,-2.6985,-9.2974,-1.2398,-5.8293,3.0050,3.0844,-14.6892,-1.3603,-17.8767,-1.8135,7.1552,-3.4711,-10.5604,-8.2114,-14.2925,-14.2012,0.0
1741737600.548000,137,-1.8154,-8.4110,-5.9084,-1.0200,1.6764,4.3563,-13.6657,-0.7646,-15.2197,-0.7038,5.8429,-4.3259,-11.7129,-7.0139,-18.2297,-10.9886,0.0
1741737600.552000,138,-2.9505,-8.3069,-7.1934,-0.1456,0.9978,9.6769,-7.0086,0.4154,-12.1865,1.0362,7.2511,-4.8298,-14.2385,-9.4002,-19.0667,-8.4524,0.0
1741737600.556000,139,-0.0741,-4.1519,-12.1413,2.5852,-0.3887,7.2337,-4.4565,-2.1032,-9.4256,1.3400,6.4673,-3.9106,-12.5220,-8.7720,-17.4875,-5.4838,0.0
1741737600.560000,140,0.5228,-3.6816,-15.7461,4.1376,-0.4056,9.8984,-1.5381,-3.5348,-7.1187,4.6644,2.7890,-1.8886,-13.9913,-10.4155,-18.8225,-1.5895,0.0
1741737600.564000,141,2.4752,-1.9427,-17.2794,5.5988,-0.4177,10.5491,1.2456,-5.1525,-2.9585,4.0677,3.1920,-2.3584,-13.6795,-11.9509,-18.7351,-0.4592,0.0
1741737600.568000,142,5.5210,0.1999,-17.2172,9.6021,-2.3659,10.3980,2.3202,-8.7473,-0.5071,3.4207,0.0136,-2.8653,-15.1611,-12.2496,-17.5462,2.4429,0.0
1741737600.572000,143,6.4031,2.6048,-19.5997,11.2642,-3.0974,7.5848,4.3000,-15.0295,0.7936,2.9854,-2.1839,0.3894,-12.6351,-14.4315,-16.2075,4.0045,0.0
1741737600.576000,144,6.2921,4.7978,-15.6092,14.9358,-2.9875,5.1435,7.2749,-16.8577,0.1274,3.0850,-6.3023,-0.4104,-8.6681,-17.1561,-15.5139,7.3611,0.0
1741737600.580000,145,6.3656,3.2689,-18.0114,12.8552,-4.2022,0.9202,8.9430,-19.0064,0.4041,2.5775,-7.1291,0.5356,-8.1315,-16.1458,-13.1241,4.1618,0.0
1741737600.584000,146,6.4788,5.0137,-15.9005,14.4618,-3.0775,-1.6946,10.2643,-21.0309,-0.2016,4.2081,-12.8014,-0.9612,-8.8387,-15.1238,-11.5582,4.7286,0.0
1741737600.588000,147,8.9064,5.8270,-13.5427,15.1330,-3.8588,-4.9742,9.6093,-20.4857,0.8567,4.6866,-14.7579,-2.1496,-7.9980,-14.4684,-11.2371,6.2694,0.0
1741737600.592000,148,8.6765,8.0778,-12.1028,16.1413,-4.1808,-6.4643,9.4422,-19.8124,0.4422,4.5722,-14.7167,-1.5956,-3.7461,-15.5221,-7.8983,6.7698,0.0
1741737600.596000,149,5.2336,6.4265,-11.1907,16.8076,-6.2690,-6.8286,4.2561,-19.2514,-3.4646,5.6647,-17.7859,-0.2869,-3.5913,-15.8605,-6.3623,5.9658,0.0
1741737600.600000,150,8.0612,7.2214,-7.1778,15.6132,-9.1842,-9.2905,2.3207,-18.5907,-2.9344,1.7234,-16.7008,2.7028,-0.5062,-13.4069,-6.5431,2.3434,0.0
1741737600.604000,151,5.6391,5.3803,-2.9014,14.0026,-9.2703,-8.9401,1.5692,-16.5237,-6.3577,3.6859,-18.4498,0.5075,-1.7496,-13.9057,-3.9780,1.3841,0.0
1741737600.608000,152,1.3272,5.4814,-2.2394,14.2500,-8.9550,-8.9608,-3.0230,-13.8793,-9.1129,2.9799,-19.3502,-0.6786,-2.1170,-10.4903,-4.3577,-0.2745,0.0
1741737600.612000,153,1.0255,5.6288,-1.4892,11.9253,-9.9070,-6.7440,-6.0296,-7.6670,-9.7042,3.5963,-19.4899,-3.1151,0.0889,-9.1345,-3.0037,-0.6078,0.0
1741737600.616000,154,-1.8381,3.3134,-3.2806,8.5494,-14.3198,-9.9899,-8.1863,-5.3970,-10.8172,0.4785,-20.0197,-6.0272,-3.5032,-7.9062,-2.5271,-2.4027,0.0
1741737600.620000,155,-4.5666,3.4260,-0.3429,6.5862,-12.8163,-4.8249,-9.9555,-2.7478,-10.7958,-2.8216,-17.5383,-6.9646,-2.5891,-6.8920,-2.5385,-4.0696,0.0
1741737600.624000,156,-7.1237,1.0656,1.2888,2.3503,-13.7397,-7.0396,-12.0308,0.8913,-8.8174,-4.5014,-19.1120,-5.3242,-0.7360,-3.7148,-3.5599,-5.3590,0.0
1741737600.628000,157,-10.1205,-1.3416,-0.6220,1.6083,-13.2821,-5.1495,-14.7484,4.6644,-8.6618,-4.6397,-17.9303,-7.5111,-0.6125,-2.0206,-3.8342,-6.8173,0.0
1741737600.632000,158,-11.6465,-4.7185,-0.5184,-4.5556,-16.4487,-4.4992,-15.5816,4.1337,-5.9397,-8.2006,-16.0686,-6.3963,-1.8751,1.7385,-4.3196,-7.7433,0.0
1741737600.636000,159,-12.4717,-7.1740,0.5409,-5.4364,-16.6300,-4.1369,-14.5108,10.1793,-3.6391,-10.6914,-15.8082,-8.6318,1.1260,3.3177,-4.0702,-9.2447,0.0
1741737600.640000,160,-15.2258,-10.2199,-0.7453,-10.3598,-15.8894,-4.6192,-15.0588,11.1987,-4.4899,-13.8131,-13.6625,-9.1971,-0.7745,5.0090,-2.0012,-10.7903,0.0
1741737600.644000,161,-14.6742,-15.3719,-2.8476,-13.7439,-16.5499,-4.7361,-14.1990,9.4099,-1.3055,-16.5370,-12.8427,-8.0301,0.1142,7.3370,-3.9254,-11.9737,0.0
1741737600.648000,162,-14.9502,-18.4559,-3.4322,-17.5809,-15.3226,-3.4074,-9.8471,14.3563,-1.3838,-17.0400,-13.7128,-9.0543,-2.1978,8.1958,-3.0090,-13.0628,0.0
1741737600.652000,163,-12.7276,-19.2472,-4.6157,-19.9124,-16.7483,-7.3982,-9.3957,10.0323,1.2090,-21.8350,-14.8000,-5.3137,2.2448,9.6317,-2.9234,-15.6780,0.0
1741737600.656000,164,-9.7392,-19.5569,-3.3077,-22.9019,-17.8904,-9.9360,-8.2632,10.7815,2.8229,-22.1961,-11.1958,-3.9661,1.2391,10.1546,-2.5558,-15.1322,0.0
1741737600.660000,165,-7.0660,-20.8326,-4.5852,-25.3608,-14.7902,-12.3534,-2.5966,10.2841,3.5517,-23.4449,-10.7327,-2.4265,4.4642,7.8250,-0.0759,-15.7628,0.0
1741737600.664000,166,-5.3294,-22.9629,-8.1406,-27.8353,-14.2068,-14.9751,-0.7642,5.5620,5.6603,-22.4063,-10.1559,0.1780,3.8394,10.1070,0.8421,-17.2563,0.0
1741737600.668000,167,-3.4435,-26.1423,-8.5158,-28.8446,-13.7550,-15.6205,-0.6595,5.7912,8.4256,-21.9538,-8.5118,1.6562,3.3525,10.4217,1.4295,-15.8081,0.0
1741737600.672000,168,-1.9291,-25.1852,-7.4237,-30.5061,-13.0112,-18.6197,0.2353,3.8930,9.4512,-20.1629,-6.9764,0.9046,-0.1109,9.9267,0.6092,-16.3899,0.0
1741737600.676000,169,1.0617,-26.9995,-10.9984,-30.0352,-13.8183,-16.8208,3.2153,1.1809,11.1208,-15.3194,-7.7968,2.0995,-0.4421,10.0830,0.3012,-14.6728,0.0
1741737600.680000,170,2.5005,-25.2360,-9.7911,-28.2557,-13.2110,-18.5832,2.0222,-0.6138,11.4784,-14.4604,-7.6429,1.7562,-2.4060,7.9131,4.8689,-13.1778,0.0
1741737600.684000,171,5.6022,-21.3009,-9.7715,-28.4079,-13.9547,-17.4295,1.0359,-4.2968,11.6328,-10.1970,-8.6295,4.4207,-2.5852,8.8037,4.7095,-10.2538,0.0
1741737600.688000,172,4.8994,-17.4391,-8.2807,-26.2391,-11.5895,-15.8425,-3.3482,-7.4067,13.8038,-10.4241,-6.1056,3.5419,-4.7227,6.8049,6.8157,-6.1668,0.0
1741737600.692000,173,9.1212,-13.0248,-7.1016,-24.1785,-7.7388,-14.9528,-2.9202,-7.1126,10.8644,-5.4035,-6.9990,4.6105,-7.7814,6.0818,6.1330,-4.2752,0.0
1741737600.696000,174,6.5146,-11.5868,-7.0679,-21.9311,-9.2830,-14.9480,-7.8704,-9.4175,10.9264,-1.3128,-5.7622,3.0094,-8.6287,7.3262,9.6143,0.0667,0.0
1741737600.700000,175,7.5796,-6.9999,-9.1953,-19.2425,-8.4075,-11.2922,-9.4992,-10.8863,10.6749,-0.2071,-5.3062,0.5660,-10.7907,6.7405,7.0723,2.0188,0.0
1741737600.704000,176,6.4425,-8.0035,-7.6038,-17.2701,-7.1192,-7.8052,-13.9315,-11.3428,5.4980,5.0585,-3.2197,-4.0117,-15.6861,5.9436,8.6032,4.2216,0.0
1741737600.708000,177,1.2604,-7.3596,-9.6085,-12.8100,-4.8876,-3.9844,-15.6473,-13.3884,1.3420,0.0290,-3.7154,-4.0801,-16.2989,6.3647,9.5505,6.4205,0.0
1741737600.712000,178,-0.8476,-5.7048,-9.0450,-9.4496,-5.4552,-1.3424,-18.8165,-11.9745,-1.9211,1.4429,-4.2277,-7.1958,-15.3115,4.9104,4.4138,7.4155,0.0
1741737600.716000,179,-5.8932,-4.4087,-6.2796,-6.1558,-3.6328,1.9528,-20.3411,-11.3425,-8.5201,0.5554,-1.3378,-9.8465,-16.9399,2.8799,1.7861,7.2382,0.0
1741737600.720000,180,-9.9013,-3.5504,-7.0415,-3.8528,-1.0294,3.9731,-22.5388,-11.9599,-11.7340,-3.0615,0.2074,-13.9485,-19.9003,0.9667,-1.1292,9.0771,0.0
1741737600.724000,181,-10.9629,-2.1405,-5.8433,-1.6842,1.0318,6.6435,-21.2184,-10.3367,-16.4077,-4.5269,3.2150,-14.8389,-18.0770,0.2404,-4.5071,6.8861,0.0
1741737600.728000,182,-12.8179,-2.9211,-4.5786,1.4705,1.3459,7.5640,-19.3515,-10.0878,-21.5010,-6.9755,4.1032,-20.4881,-18.1548,-0.7145,-8.2505,6.3096,0.0
1741737600.732000,183,-17.0538,-1.6937,-6.6059,1.9821,5.0400,6.1501,-16.9099,-7.4495,-24.2710,-9.5678,6.6107,-24.3940,-17.8493,-3.2936,-10.8415,4.8376,0.0
1741737600.736000,184,-16.3878,-3.3079,-2.0509,3.9234,5.7969,8.2339,-11.0264,-6.0224,-27.7983,-11.6378,10.8152,-26.7163,-13.9431,-1.2385,-15.5874,2.9579,0.0
1741737600.740000,185,-18.3540,-2.9245,-2.9499,1.7429,8.0954,7.6221,-7.7270,-5.9420,-29.0161,-13.4207,12.1516,-30.7042,-13.4621,-5.2866,-18.7188,-1.8831,0.0
1741737600.744000,186,-24.3539,-1.9331,-4.3620,6.1037,7.6710,5.9341,-2.9734,-3.7395,-29.1482,-13.4629,14.4960,-33.8994,-10.8472,-4.6690,-22.8701,-5.1495,0.0
1741737600.748000,187,-24.6525,-3.0115,-7.6223,4.1441,8.9734,4.6479,3.6297,-2.8995,-28.2594,-16.1947,15.0859,-36.0867,-10.7218,-9.1113,-26.4865,-5.4401,0.0
1741737600.752000,188,-23.4732,-2.2300,-9.8129,3.3134,10.9630,3.2708,4.2056,-3.0836,-25.0977,-15.3160,18.4840,-35.2058,-6.6210,-11.2058,-29.4280,-5.5143,0.0
1741737600.756000,189,-23.4326,-2.6776,-12.3432,2.1376,10.2393,2.7850,6.6923,0.3726,-21.2717,-8.7119,16.2923,-33.9153,-6.0651,-10.3805,-30.0100,-5.0729,0.0
1741737600.760000,190,-23.2369,-0.4463,-16.3423,-0.5251,9.6675,1.0431,8.6409,1.6578,-15.5350,-7.2806,15.0784,-29.9318,-4.9473,-13.8043,-26.6600,-2.7147,0.0
1741737600.764000,191,-18.5784,0.7411,-18.5985,-0.5704,9.7682,3.8345,12.2392,0.0158,-7.6352,-3.0551,13.8139,-27.5783,-1.3383,-15.0074,-22.7258,-3.4935,0.0
1741737600.768000,192,-15.7555,1.6485,-21.4697,-3.5190,10.2760,1.9962,13.5355,1.3153,-1.0503,2.4393,14.6040,-23.6684,0.9832,-15.3254,-13.8547,0.8805,0.0
1741737600.772000,193,-13.7611,3.2293,-21.2266,-2.6790,8.7157,1.0395,15.9827,2.7758,6.4129,7.3119,14.8760,-19.2604,4.1180,-17.2861,-10.5912,-1.1985,0.0
1741737600.776000,194,-11.1040,4.3185,-25.2930,-3.5620,8.6200,-1.6270,16.4077,2.3146,14.7973,9.9508,11.0085,-15.1936,8.8268,-16.6141,-3.6774,3.8876,0.0
1741737600.780000,195,-10.8442,5.3250,-26.6813,-1.9983,9.1191,-1.8960,15.8372,2.1360,20.5829,14.6274,6.7101,-9.5372,12.4851,-17.3662,3.0266,6.6399,0.0
1741737600.784000,196,-6.4705,3.4491,-26.4529,-2.5976,6.5729,0.6820,13.1830,1.8192,28.7026,16.1317,4.4889,-3.0351,17.6229,-17.2661,7.4761,9.9396,0.0
1741737600.788000,197,-6.9676,2.9057,-23.9538,-3.0525,4.9271,4.0376,9.3471,0.8040,31.5983,18.2571,-2.3728,-0.2186,18.4511,-14.0637,14.2501,11.3524,0.0
1741737600.792000,198,-3.2646,3.1377,-24.4535,-1.9088,3.4985,6.5392,7.0387,-0.5236,32.1858,20.7566,-5.3495,5.8433,23.5365,-12.1495,18.7677,9.7288,0.0
1741737600.796000,199,-2.0892,2.1381,-23.2538,1.0089,4.7816,7.9787,6.8818,0.3665,36.9523,20.5544,-8.7606,12.6864,23.8985,-9.0138,24.7645,12.9231,0.0
1741737600.800000,200,-1.4531,8.2786,-18.4739,3.5478,-1.4424,11.6834,3.3272,0.2568,34.2148,18.8007,-14.5526,17.1723,23.6038,-3.2159,29.7009,15.9576,0.0
1741737600.804000,201,-1.2154,5.6135,-15.3467,9.9845,-0.7778,12.9845,2.9546,3.5286,28.7649,14.5986,-18.3095,17.2762,25.8004,2.3263,30.1946,13.8190,0.0
1741737600.808000,202,-1.0409,5.1425,-9.0595,14.4105,-3.5772,15.5893,0.4833,4.8969,25.9104,11.9521,-23.2637,16.6430,24.8619,9.7145,29.3707,12.5770,0.0
1741737600.812000,203,-0.2907,5.8866,-3.8716,15.6819,-5.2487,12.7022,-1.3513,6.8967,20.9873,7.7626,-27.2927,17.7129,25.0383,17.7183,28.5036,10.7337,0.0
1741737600.816000,204,0.8831,5.6773,2.0886,16.5122,-8.0942,13.4507,-1.0364,8.9480,16.0200,-1.8025,-25.2798,14.3024,23.6949,22.6492,25.8430,7.1937,0.0
1741737600.820000,205,4.6345,6.5909,6.7083,16.8237,-11.9932,12.2245,-2.9643,10.6329,9.8354,-3.7580,-25.2359,14.7102,22.7187,25.2945,21.0417,4.0142,0.0
1741737600.824000,206,7.1132,7.8097,10.0952,13.2125,-14.2775,9.6987,-2.9410,14.1764,0.9722,-9.5040,-25.1954,12.5575,18.2748,27.1705,16.2150,0.0366,0.0
1741737600.828000,207,8.1454,6.8255,14.2139,13.9135,-18.2508,6.1483,-1.9714,13.6206,-5.3000,-12.0535,-23.5026,14.5901,11.8933,31.2842,11.1300,-5.2368,0.0
1741737600.832000,208,9.9338,6.2114,16.4560,9.8229,-23.6135,5.2701,-1.6641,15.8373,-10.9699,-17.2523,-20.2307,12.8852,6.6053,30.8363,4.3838,-7.6744,0.0
1741737600.836000,209,12.2214,3.9686,17.4914,9.2982,-22.6395,4.2380,-4.3820,16.9575,-13.8690,-21.9927,-17.1208,12.3065,3.9136,30.3359,-0.9794,-9.7488,0.0
1741737600.840000,210,15.0152,2.7326,22.1046,5.4151,-24.2400,-1.5463,-3.6140,14.1198,-20.1586,-22.3459,-11.4158,7.7492,-3.2934,29.3005,-4.4275,-11.5063,0.0
1741737600.844000,211,19.7935,3.5247,20.7242,1.4668,-20.8482,-5.4757,-3.8979,15.1394,-21.4840,-19.7952,-5.3980,9.3026,-6.8333,26.9508,-6.8359,-11.2785,0.0
1741737600.848000,212,25.0919,3.0548,21.9612,-0.6036,-21.3123,-5.8622,-5.1468,12.2491,-23.0248,-18.6335,0.1569,6.3422,-11.2705,23.7386,-10.9915,-14.1027,0.0
1741737600.852000,213,26.1925,0.5754,22.9026,-4.1920,-17.0295,-10.6573,-1.0352,10.3660,-21.3773,-15.5855,7.0003,5.7303,-12.8699,19.7438,-11.9896,-14.8147,0.0
1741737600.856000,214,25.9492,-0.6769,23.5830,-9.3313,-12.1121,-13.2877,-3.1835,5.3583,-18.4567,-13.9731,10.8033,7.5146,-15.1574,13.0757,-10.9857,-13.9776,0.0
1741737600.860000,215,23.9230,-5.4771,22.2321,-13.5133,-5.6526,-15.8794,-3.7439,2.3934,-15.7940,-9.5491,14.3474,4.7576,-13.9135,8.0530,-12.7478,-10.4591,0.0
1741737600.864000,216,22.9674,-3.8194,16.5033,-16.9518,-2.4545,-16.0711,-5.7031,-4.9288,-12.6251,-6.9237,17.3594,3.6207,-15.7403,3.0713,-10.3611,-13.0427,0.0
1741737600.868000,217,19.3157,-9.8708,9.9949,-22.5288,1.7733,-16.5472,-6.1909,-11.1369,-8.0777,-5.5796,18.3710,1.4618,-16.4468,-2.7264,-12.5611,-11.7410,0.0
1741737600.872000,218,13.9473,-10.3827,6.9597,-21.3846,6.1658,-14.0190,-8.1102,-17.1754,-3.7667,0.1995,19.7400,-0.1116,-15.7551,-5.7798,-10.4543,-8.9342,0.0
1741737600.876000,219,8.7953,-13.2941,5.8762,-22.0845,11.5715,-11.2413,-5.0832,-19.6610,-2.3297,0.0273,20.5555,-1.2296,-14.0661,-9.4683,-9.3474,-7.5839,0.0
1741737600.880000,220,4.7713,-15.4601,1.4769,-22.1469,13.7693,-12.3212,-8.6722,-24.8603,0.9890,4.8510,16.8057,-1.3708,-12.2180,-13.2754,-8.9946,-5.4598,0.0
1741737600.884000,221,-1.4488,-12.2606,-2.4864,-19.7581,19.4589,-11.7347,-10.0345,-26.7981,2.1757,4.1587,14.8639,-4.8851,-8.7747,-15.7828,-5.9537,-4.7876,0.0
1741737600.888000,222,-5.3293,-14.4031,-4.9278,-19.2917,22.5733,-12.2641,-8.2019,-27.3771,1.6044,6.5507,13.1614,-10.7185,-6.0561,-17.6933,-3.3902,-2.4493,0.0
1741737600.892000,223,-9.6784,-13.7854,-8.9865,-17.4890,22.4378,-9.7939,-5.6127,-25.5429,3.7171,8.2052,14.3100,-11.7698,-1.4144,-17.1120,-2.2685,0.1966,0.0
1741737600.896000,224,-14.0087,-14.0111,-12.8798,-15.3722,22.0986,-10.5255,-5.3173,-22.6536,2.3904,6.2854,14.7235,-16.1652,-2.1330,-17.3916,-3.3299,1.1611,0.0
1741737600.900000,225,-20.2073,-14.8794,-16.9061,-13.7590,19.5791,-9.8747,-5.3849,-20.5094,2.6311,6.0533,10.5411,-17.4558,1.3990,-13.3968,-3.9121,-0.6281,0.0
1741737600.904000,226,-23.8329,-16.5076,-16.8956,-11.6646,17.8551,-7.5110,-3.6549,-16.6998,2.3322,3.8195,10.4882,-19.2332,1.1013,-14.5657,-4.0383,2.6311,0.0
1741737600.908000,227,-27.1190,-14.9320,-19.2911,-8.1474,15.6501,-3.2988,-6.3189,-12.0461,1.4422,2.8845,9.0683,-20.1916,2.5343,-11.7612,-6.6770,3.3824,0.0
1741737600.912000,228,-24.0578,-11.1379,-18.2525,-4.0560,10.1453,0.7174,-5.3219,-6.7433,-0.7808,4.6989,7.9809,-19.9737,3.4573,-8.9544,-9.0838,7.6309,0.0
1741737600.916000,229,-24.3600,-6.7492,-19.9649,1.7955,6.8955,5.4716,-3.0854,-0.3780,-2.0559,-0.5464,4.6543,-18.7391,1.8735,-7.7056,-8.5415,8.2869,0.0
1741737600.920000,230,-20.9050,-1.9762,-20.0080,3.9571,0.4231,7.6536,-1.5843,2.9924,-1.3515,-0.0990,1.8384,-19.1382,0.1437,-7.0243,-9.3529,11.7444,0.0
1741737600.924000,231,-15.9738,4.5330,-18.7214,8.5188,-0.7306,9.3057,-1.6452,7.0453,0.6022,-0.9969,3.0860,-17.5523,-1.0007,-2.0262,-7.8111,15.6126,0.0
1741737600.928000,232,-11.0507,8.8314,-15.6977,16.1878,-2.8572,15.0213,-1.9478,14.7939,0.5197,0.8207,2.0063,-12.4239,-1.1861,-1.0840,-7.0699,17.7202,0.0
1741737600.932000,233,-8.9739,12.2406,-11.9211,17.2146,-2.0054,17.8073,-0.6043,16.3256,3.3657,1.0340,2.1283,-10.7620,-0.8236,4.6542,-6.2910,18.7666,0.0
1741737600.936000,234,-3.5832,14.6767,-12.5107,19.2105,-1.2184,21.3752,-0.2873,19.9963,5.4975,2.4589,1.4193,-7.8646,0.3324,3.8965,-2.8364,20.8349,0.0
1741737600.940000,235,-0.6737,19.1606,-10.0920,23.2223,-5.0796,24.9343,2.2585,18.8512,8.4889,2.9989,1.8344,-6.2648,-0.6335,4.7730,3.1753,21.4208,0.0
1741737600.944000,236,0.6154,23.2252,-10.0558,23.1317,-5.7336,25.8999,1.8508,18.2328,10.9747,2.7659,-1.0901,-0.9203,-0.3170,2.1194,5.9753,21.2080,0.0
1741737600.948000,237,1.8728,21.2246,-9.4252,23.7004,-4.2202,24.8082,1.6704,15.4285,13.8684,3.5607,-2.6247,4.1997,-0.1632,2.8618,7.1772,19.5005,0.0
1741737600.952000,238,3.1801,22.8655,-4.1972,25.5913,-2.8729,30.0323,2.5241,13.1299,14.3411,3.3943,-5.4196,13.4022,1.0952,3.1891,11.1892,20.2272,0.0
1741737600.956000,239,5.1955,22.9024,-2.9799,26.0699,1.0135,29.1530,3.1808,12.7424,17.5749,5.8577,-8.0754,14.8630,3.2351,6.1629,15.4796,18.4150,0.0
1741737600.960000,240,7.8683,27.1347,1.4666,27.4908,3.5086,28.1238,5.5111,8.6732,14.0821,4.1530,-9.1277,18.9478,5.4483,7.9241,22.5889,13.3527,0.0
1741737600.964000,241,10.3629,24.1593,7.1063,25.9528,5.3925,24.7155,11.2699,8.5544,15.7577,3.3321,-9.9053,20.3930,10.9588,6.6949,25.2001,9.0340,0.0
1741737600.968000,242,12.7086,21.4639,7.8417,22.4412,5.9592,20.3507,13.9519,7.8752,10.5023,3.8069,-11.9917,19.9099,14.2303,9.5192,26.0861,3.5672,0.0
1741737600.972000,243,11.3790,16.9949,10.9836,20.9853,8.2941,14.4931,17.1833,6.3560,8.9092,3.0874,-14.3420,20.2375,20.5149,15.9648,26.2527,-3.4906,0.0
1741737600.976000,244,7.0220,10.9853,14.1367,18.5753,7.4741,10.7200,20.6807,5.2444,5.2783,3.0084,-12.7631,19.6125,23.9790,14.2547,24.0324,-8.7807,0.0
1741737600.980000,245,9.3083,7.7380,15.2249,13.2476,8.5392,5.2939,20.3051,3.0058,3.2713,1.7958,-10.9957,16.8560,26.2452,16.3636,20.2249,-14.7895,0.0
1741737600.984000,246,6.3938,1.5910,13.7605,8.7827,3.1061,1.6505,21.3861,2.6141,0.4843,3.5755,-8.5778,14.7603,25.9228,20.0571,15.7861,-15.2626,0.0
1741737600.988000,247,6.5636,-0.1898,14.5038,5.4594,2.9288,-1.5864,22.2466,3.5448,0.1554,4.1633,-10.5145,12.3010,26.0073,18.8241,10.9399,-18.3898,0.0
1741737600.992000,248,6.4049,-3.2607,14.0983,1.3451,-1.7642,-5.0754,21.5369,4.1677,-1.8239,4.3767,-10.3443,8.8201,24.1326,21.3071,7.3199,-21.4857,0.0
1741737600.996000,249,5.6749,-5.1933,14.0766,-1.2007,-4.2668,-8.8017,21.5185,6.8768,-4.3574,5.4738,-9.9091,6.3827,21.5481,23.5056,2.2224,-19.7442,0.0
1741737601.000000,250,6.9571,-5.6071,13.4316,-4.7327,-7.5592,-12.6945,17.1268,9.5683,-4.9069,4.5539,-7.5273,2.7923,17.9208,23.5256,-0.8882,-16.6396,0.0
1741737601.004000,251,10.3807,-8.6627,13.8872,-6.5249,-10.2904,-15.5442,14.8676,12.2328,-6.1500,6.0190,-3.0277,-1.7635,16.4487,22.5880,-5.4415,-13.2792,0.0
1741737601.008000,252,9.3864,-6.1837,11.8283,-10.7191,-9.6461,-15.4907,8.3809,10.9402,-4.1455,5.6470,0.9275,-5.8627,9.4214,18.4124,-8.5149,-11.4464,0.0
1741737601.012000,253,9.7958,-7.6695,8.8936,-14.8412,-11.6367,-18.0865,5.0665,11.3627,-1.6912,7.1191,6.8774,-8.8897,5.9774,16.5625,-12.3875,-3.7346,0.0
1741737601.016000,254,10.3393,-7.6353,2.0534,-17.5535,-15.1713,-20.3246,-1.6842,10.4410,3.1919,3.9261,9.8304,-9.3895,0.9921,11.5639,-13.5596,-0.7421,0.0
1741737601.020000,255,10.9133,-8.7935,-2.7562,-22.7621,-18.2716,-15.8420,-6.9217,8.7423,4.7631,1.9880,13.2024,-11.0916,-7.7511,4.4039,-13.7267,4.6546,0.0
1741737601.024000,256,9.4410,-9.2960,-2.6642,-22.9188,-13.5870,-12.6283,-17.4547,6.1712,5.2070,-2.3482,13.6586,-8.5230,-9.0756,0.1849,-13.2765,9.6828,0.0
1741737601.028000,257,6.1937,-6.5544,-3.5000,-22.9894,-12.9625,-9.9584,-22.6654,2.0396,8.3305,-4.2975,15.5356,-3.1318,-14.9290,-4.7110,-11.5835,11.8929,0.0
1741737601.032000,258,7.3192,-8.2408,-8.4505,-21.1765,-7.9833,-4.1750,-27.3457,-4.8087,7.4407,-10.4136,16.5212,-0.5494,-17.8088,-11.3625,-10.5436,15.1827,0.0
1741737601.036000,259,6.9726,-3.9117,-7.7143,-19.0230,-2.6886,-2.3000,-28.7387,-6.0838,5.8851,-15.4143,17.5925,-1.9288,-21.8434,-14.7560,-5.9825,17.9304,0.0
1741737601.040000,260,8.7912,-3.2116,-10.3612,-18.1954,2.7890,-1.6739,-30.3100,-9.2389,5.3809,-16.2923,20.2468,2.6312,-21.6822,-19.3932,-0.3043,17.3291,0.0
1741737601.044000,261,8.5195,-2.0215,-6.9257,-13.8574,7.9730,-2.3933,-28.5130,-13.2746,3.0491,-17.3115,20.1079,3.5062,-21.4768,-21.9080,4.5264,16.4010,0.0
1741737601.048000,262,5.8363,-2.3043,-4.3381,-10.9495,14.1212,-3.3924,-24.6489,-15.9824,0.0416,-19.0062,20.8552,4.9270,-16.8318,-20.7239,5.8928,11.5962,0.0
1741737601.052000,263,5.0982,-3.5413,-2.1165,-8.5420,20.0267,-1.5976,-19.3810,-19.8484,-3.3817,-20.8838,20.0122,6.2913,-12.3814,-20.4976,7.2337,5.6901,0.0
1741737601.056000,264,0.8880,-3.7304,2.4435,-4.8508,23.7715,-1.3680,-18.6696,-19.3160,-6.2707,-20.5775,20.4767,6.7719,-7.2780,-20.0555,13.9030,0.8552,0.0
1741737601.060000,265,-0.3353,-4.4578,2.2601,-2.8873,28.0666,2.8019,-12.4949,-21.6569,-6.7611,-21.3782,14.8969,6.0885,-2.1090,-18.2625,11.2386,-3.2136,0.0
1741737601.064000,266,-2.9208,-2.7370,3.1362,2.5997,29.0341,3.1189,-6.8995,-19.4835,-9.9435,-17.7696,12.6103,5.6219,1.5066,-20.5772,9.5975,-7.8000,0.0
1741737601.068000,267,-4.4464,-3.7392,5.2343,4.7182,28.0791,5.7460,1.4389,-18.8003,-12.0334,-12.2633,7.6593,4.5892,3.4657,-12.8579,8.0525,-13.4214,0.0
1741737601.072000,268,-2.5918,-2.9371,5.3359,8.8571,28.0980,8.1179,5.3648,-15.0161,-11.5501,-5.0950,3.9998,5.4497,5.3141,-5.7473,5.1937,-11.6374,0.0
1741737601.076000,269,-2.6861,1.0687,7.2581,8.2185,26.4317,8.4079,12.9346,-12.4093,-10.4301,1.5540,4.9512,2.4413,9.4923,-1.3948,5.6050,-15.7809,0.0
1741737601.080000,270,-1.9148,3.8462,10.9558,11.9339,22.2991,9.7474,18.8773,-7.7797,-13.3562,10.5286,2.8424,-3.6635,17.0368,3.7078,0.8302,-15.1946,0.0
1741737601.084000,271,0.9106,5.8645,9.8725,15.7335,20.3675,9.2109,24.3793,0.3843,-12.0976,20.8775,3.3562,-6.7157,17.0069,8.0843,-1.7552,-13.8533,0.0
1741737601.088000,272,1.5259,5.3891,8.2268,15.2648,13.1455,11.0168,25.5997,7.4699,-8.5789,27.3190,3.3209,-9.8797,17.5797,8.1650,-1.6205,-12.2963,0.0
1741737601.092000,273,0.0822,11.5540,6.6324,14.6847,6.8195,11.9830,24.2384,15.3719,-4.1913,31.6018,2.7459,-11.1449,17.5576,5.8569,-6.1519,-9.6617,0.0
1741737601.096000,274,-1.5302,8.8161,4.4398,14.5337,4.0552,14.9869,19.4566,17.2502,-1.0655,36.8332,0.8239,-9.3706,20.1133,6.4620,-10.7132,-4.3197,0.0
1741737601.100000,275,-3.8779,11.4105,2.8737,13.7031,-2.4439,18.6002,18.5905,21.9944,2.2809,38.3429,1.8661,-8.1648,16.4811,6.2940,-12.1486,2.2523,0.0
1741737601.104000,276,-4.3997,14.6401,-1.3821,13.3314,-7.7826,21.4053,11.5179,20.0848,5.7482,39.7550,-0.9711,-7.4223,13.7487,6.4418,-13.0607,6.2385,0.0
1741737601.108000,277,-2.0095,18.3086,-3.4083,18.3670,-12.1960,23.2838,9.1250,19.5932,9.8259,37.7800,-2.3875,-3.9635,12.0743,3.7346,-14.3485,15.1989,0.0
1741737601.112000,278,-3.0696,17.0236,-4.9736,19.0499,-13.5799,22.9536,6.8924,18.5926,12.2088,35.3168,-2.3667,-1.3786,8.5498,1.7334,-11.9876,17.4055,0.0
1741737601.116000,279,-0.7582,19.7570,-5.7246,21.7552,-12.2152,20.8468,4.2696,16.3937,12.5304,30.1699,-5.0963,0.2748,4.5346,-0.3543,-9.6138,21.2782,0.0
1741737601.120000,280,-4.2342,19.9156,-5.0843,23.7963,-9.2891,18.1370,1.4914,15.2562,10.3992,22.5216,-6.0223,1.0858,3.5650,-0.2320,-6.2674,25.3981,0.0
1741737601.124000,281,-4.9593,18.3795,-4.5321,26.5961,-6.0489,13.1285,-0.6369,15.0474,10.2241,13.8695,-5.2643,6.0270,1.1952,-1.8385,-4.4432,26.2556,0.0
1741737601.128000,282,-4.0100,15.7289,-2.5008,26.9951,-4.0689,9.5501,-3.8262,9.5796,9.7413,6.2425,-5.0485,5.9730,2.3393,-3.5658,0.1645,24.1502,0.0
1741737601.132000,283,-5.1712,13.8375,-1.5224,24.6226,-3.0915,4.9295,-2.9433,3.9132,4.5503,-4.1647,-5.4496,9.1613,3.0578,-7.0973,0.3457,20.4009,0.0
1741737601.136000,284,-2.2009,11.8901,0.1023,23.7853,-3.1403,-2.3142,-2.9147,0.1932,5.0139,-13.6258,-6.2887,9.9584,2.2708,-7.7172,3.7682,15.8675,0.0
1741737601.140000,285,-0.3433,6.9208,1.1342,22.4140,-1.3788,-6.7269,-2.1186,-6.4165,0.1949,-21.4346,-7.8234,14.3899,0.6664,-9.1623,4.3118,9.9812,0.0
1741737601.144000,286,1.0035,4.0102,2.7091,18.5294,-1.3272,-12.3357,-3.4468,-11.2306,-2.8800,-27.1103,-9.8197,19.4715,-0.8721,-7.7176,6.6318,4.3475,0.0
1741737601.148000,287,2.1276,-0.6019,5.5950,18.1018,-0.3340,-17.4163,-1.3927,-11.8160,-8.4524,-34.6051,-12.7887,21.2856,-2.0841,-4.1187,8.9457,0.7165,0.0
1741737601.152000,288,6.6352,-1.8893,10.8370,14.4678,-0.4500,-22.1599,2.6583,-14.8489,-10.0118,-35.0281,-11.6353,19.5518,-0.5794,0.2696,9.7935,-5.9364,0.0
1741737601.156000,289,12.4649,-2.1683,10.7127,10.1281,0.0690,-23.9148,6.1168,-14.9349,-10.7476,-33.1887,-9.9451,18.2037,-1.1346,4.6528,11.6366,-11.2026,0.0
1741737601.160000,290,18.4118,-2.7541,18.1150,5.9370,-1.3656,-24.8411,5.8059,-12.6585,-11.8198,-29.5307,-9.5853,15.0115,0.6714,6.0854,13.9830,-14.4904,0.0
1741737601.164000,291,23.1471,-5.2181,17.9462,0.3006,-1.0250,-26.2157,7.8788,-11.6535,-9.8477,-27.0772,-7.0765,11.3316,2.4000,7.6071,10.7970,-21.9444,0.0
1741737601.168000,292,24.2278,-3.8553,20.3330,-3.9715,-4.5295,-24.8623,8.1200,-6.4454,-4.8062,-19.2592,-4.6610,9.3062,2.8097,10.1819,14.0652,-23.0991,0.0
1741737601.172000,293,23.6731,-7.5390,17.3722,-11.5940,-7.4926,-21.6468,5.2421,-4.2151,-1.6530,-14.1045,-2.2322,7.9901,1.7136,9.9682,11.4490,-22.2095,0.0
1741737601.176000,294,22.8644,-8.5182,15.5954,-16.0056,-9.2305,-13.3790,2.2727,-2.9955,5.4187,-6.8603,-1.9269,2.4553,0.3688,12.4201,7.9793,-20.0598,0.0
1741737601.180000,295,23.2677,-8.9630,8.3637,-20.7771,-16.2561,-6.8815,-0.7182,-2.6374,7.2018,0.9584,0.0409,1.1632,-1.5180,12.9855,5.5848,-19.6348,0.0
1741737601.184000,296,19.6276,-8.9179,5.4857,-24.0242,-18.6547,0.7600,-5.9356,3.1529,13.2922,6.2938,2.2310,0.1670,-3.1373,15.0418,5.5966,-16.4115,0.0
1741737601.188000,297,18.8431,-7.4969,2.7493,-27.6086,-14.3603,5.5020,-10.5265,4.2545,16.5008,11.1400,0.0025,-0.7491,-5.0543,12.5082,2.1515,-12.8194,0.0
1741737601.192000,298,14.9754,-8.1808,1.0937,-25.9541,-14.3138,8.6008,-14.4915,8.8298,21.6818,14.9906,-0.3634,-3.7613,-6.6951,12.6683,2.5825,-7.6217,0.0
1741737601.196000,299,10.8786,-6.0309,-1.2677,-26.3263,-8.3395,12.4574,-17.6616,11.0794,21.7755,16.9223,1.1769,-3.0570,-5.5006,13.8301,2.5570,-5.0518,0.0
1741737601.200000,300,7.3780,-8.5419,-3.1927,-22.3680,-6.1618,15.0039,-21.1168,11.4510,19.7330,17.2718,7.1804,-4.3190,-4.7101,10.4607,1.9579,-0.4185,0.0
1741737601.204000,301,2.6397,-9.5667,-5.4622,-20.9610,-1.2805,16.7125,-23.2859,12.0749,16.6752,16.6506,9.9601,-6.6883,-1.2681,12.5074,2.1944,1.7764,0.0
1741737601.208000,302,-3.2386,-12.2301,-9.8820,-19.1993,-0.3743,18.6565,-22.1002,12.9618,16.1324,14.8818,10.6819,-6.4715,-2.3350,6.9757,-0.5765,3.6774,0.0
1741737601.212000,303,-5.5742,-17.5424,-12.4801,-19.2274,3.9217,16.7629,-21.7646,13.2235,12.1344,9.4067,9.8480,-6.4216,-1.1208,6.7718,-0.4448,4.2637,0.0
1741737601.216000,304,-12.5592,-19.5895,-13.5618,-14.0472,9.1505,13.5428,-19.4559,10.4706,6.3169,4.0879,9.8225,-2.2844,1.6212,6.0362,-2.6868,3.1937,0.0
1741737601.220000,305,-15.8625,-19.4485,-14.4310,-10.0083,13.7385,12.2536,-16.9726,10.2579,0.8649,-1.9441,8.7290,-0.1482,1.8619,4.2063,-5.0400,7.3405,0.0
1741737601.224000,306,-17.9097,-19.1866,-14.1828,-5.8960,17.4487,7.7931,-12.6956,9.3986,-6.6450,-7.1989,8.4229,0.9250,3.5574,4.6330,-6.4581,7.7799,0.0
1741737601.228000,307,-21.9984,-17.5797,-11.0361,-0.5699,21.7486,4.3196,-7.5508,6.1073,-13.4203,-11.5845,10.0517,-0.2580,4.3133,4.0787,-4.8162,9.4860,0.0
1741737601.232000,308,-15.9855,-11.4816,-9.7144,5.5492,21.6300,-1.3569,-0.1307,5.6784,-18.7209,-12.4881,10.7431,0.3766,5.6173,3.3483,-6.9766,9.1208,0.0
1741737601.236000,309,-15.3585,-11.3403,-6.4934,7.8587,24.3867,-5.1526,4.3375,6.0507,-23.2424,-11.4240,10.2759,-3.3321,6.1407,4.3351,-2.7365,11.6630,0.0
1741737601.240000,310,-13.2899,-7.1074,-2.2727,10.9333,25.2908,-7.7458,13.0016,8.2199,-27.3840,-12.9048,11.8981,-2.0300,7.3886,3.1017,-5.0836,13.5420,0.0
1741737601.244000,311,-13.0320,-1.3711,-1.2894,11.7197,22.6982,-12.2648,19.6301,5.9529,-24.3816,-8.7248,14.7904,-5.3900,6.7817,3.6149,-4.4423,13.7916,0.0
1741737601.248000,312,-12.7298,1.3411,-2.4958,9.6938,19.0653,-9.4767,22.0400,5.8016,-23.2976,-3.4976,12.3178,-5.1063,6.8897,1.5523,-3.4444,15.0403,0.0
1741737601.252000,313,-14.5677,5.4931,0.3132,7.8917,14.0776,-11.4065,24.4126,3.8998,-15.5627,-1.1068,13.0937,-7.4215,4.2971,-0.5540,-0.3563,19.3031,0.0
1741737601.256000,314,-6.8200,11.7648,-4.8423,5.5179,8.2134,-8.5084,26.7655,1.8720,-5.6922,4.9036,11.6544,-8.3590,3.0234,-2.2379,0.1052,19.0301,0.0
1741737601.260000,315,-4.8401,19.1004,-4.8775,4.8604,0.7037,-4.5718,24.2555,-0.5651,0.6170,6.9074,9.2800,-5.7448,1.2813,-3.6270,1.6322,24.1926,0.0
1741737601.264000,316,-2.3794,20.5278,-3.5900,2.8292,-1.6227,0.3504,22.3583,0.6669,5.0982,11.5363,6.4971,-1.9764,-1.4102,-2.6070,7.7121,26.7843,0.0
1741737601.268000,317,-1.2085,28.5364,-3.2881,4.5607,-9.5222,5.8814,17.8819,-1.1766,12.9578,16.5028,5.1250,-0.4995,-1.0089,-3.4076,11.2363,25.6709,0.0
1741737601.272000,318,3.0118,30.8810,-0.2040,5.2774,-11.0371,8.2678,14.5283,-1.3878,21.7597,20.5909,5.2047,0.4408,-4.7230,-0.5538,15.7648,23.3655,0.0
1741737601.276000,319,6.6511,33.0497,-0.5585,5.6063,-11.8055,13.7573,13.1435,-1.7876,26.5592,22.1931,6.3823,-0.5318,-0.8094,-0.0439,19.7194,20.2169,0.0
1741737601.280000,320,6.9435,33.2772,2.2351,6.7069,-12.5396,17.4605,9.7680,-1.4169,29.7853,23.8566,3.5851,-1.6655,0.1208,1.0554,22.8877,18.0730,0.0
1741737601.284000,321,7.2269,31.2838,3.7213,8.0908,-12.3618,19.8961,4.4618,0.5324,33.4047,18.4315,1.8583,-0.7605,3.7020,-1.2313,20.7475,11.8539,0.0
1741737601.288000,322,4.2273,27.3995,5.2744,9.2687,-10.7178,20.7959,0.0473,-0.0037,35.3410,14.3125,0.5680,7.1418,4.1645,-0.8439,23.6397,7.1029,0.0
1741737601.292000,323,3.8390,21.6622,7.2639,10.7519,-6.3322,23.3989,-2.5085,1.3400,34.5618,10.5876,-1.7057,9.1280,7.8022,1.5092,20.3085,1.4152,0.0
1741737601.296000,324,1.1456,15.6962,9.8971,12.7945,-4.2278,23.9099,-4.0788,0.5738,33.7545,3.9008,-2.9116,11.9165,11.3074,3.6646,18.8879,-5.0074,0.0
1741737601.300000,325,0.9377,10.3425,11.1462,15.2818,-1.9901,26.3661,-8.5691,-0.3511,27.4105,1.3331,-4.5919,11.3788,11.2299,4.5914,16.6868,-12.3368,0.0
1741737601.304000,326,0.5188,5.8051,12.4212,18.3474,3.6712,24.7351,-5.6099,0.5559,23.1566,-4.4207,-6.7836,10.9054,11.2953,9.3181,14.2744,-17.4001,0.0
1741737601.308000,327,1.7528,3.1564,15.1324,23.3885,8.5897,21.3347,-4.9484,3.6515,12.9675,-9.2417,-4.9284,9.2540,13.3406,10.5810,11.0089,-21.4085,0.0
1741737601.312000,328,0.1910,-0.9698,16.4746,28.2680,13.7186,13.6767,-1.5046,6.7003,4.3337,-11.7629,-3.5771,7.7317,14.5729,13.7920,5.6889,-24.0012,0.0
1741737601.316000,329,2.5053,-3.5543,19.4117,25.4037,17.6644,9.8771,-1.6698,11.3345,-2.8525,-15.2363,-1.1976,5.4866,15.0848,14.4783,0.6516,-25.5138,0.0
1741737601.320000,330,1.6297,-5.9809,17.3084,25.1296,24.2638,4.9957,2.0447,14.3037,-11.9403,-15.2704,2.2230,3.0220,15.2217,13.1397,-3.6501,-24.3245,0.0
1741737601.324000,331,5.3729,-6.8445,16.9635,22.1871,23.0603,0.0174,2.3473,17.7427,-17.5105,-12.4158,5.7624,0.8559,17.1997,11.6817,-8.2942,-20.6756,0.0
1741737601.328000,332,5.4367,-9.7983,11.9632,15.3007,19.9344,-1.9360,5.6277,15.8283,-20.7986,-11.0746,11.6181,1.0853,16.1920,9.7268,-11.3827,-19.4044,0.0
1741737601.332000,333,7.9521,-9.2784,7.8227,10.4411,16.1091,-5.7985,5.1171,14.6200,-25.1832,-9.1875,15.8152,1.0037,10.4742,3.4321,-14.0962,-12.7274,0.0
1741737601.336000,334,10.2367,-11.2612,2.6469,4.1831,13.4039,-5.5037,6.9485,14.0771,-27.5966,-2.8449,18.7757,0.4655,8.3800,-0.6429,-14.2157,-6.1057,0.0
1741737601.340000,335,12.2114,-7.3253,-3.7744,1.9947,11.6990,-8.4808,7.5202,13.1810,-27.5378,1.2873,18.8080,3.1221,1.6268,-1.4909,-13.5470,1.5699,0.0
1741737601.344000,336,10.9498,-5.3100,-8.7377,-0.4032,8.0595,-7.4698,8.9631,9.4967,-26.6362,7.9116,21.7840,1.6341,2.2870,-3.9157,-12.4760,10.7106,0.0
1741737601.348000,337,13.0807,-0.6399,-10.8590,-2.1908,6.7242,-5.9275,7.5524,9.3449,-23.6750,13.0038,23.1945,3.7996,0.3922,-9.4593,-10.2330,17.9890,0.0
1741737601.352000,338,15.0873,1.8883,-11.7820,-6.2214,4.2880,-5.7980,11.1833,5.3050,-20.4105,15.7844,21.4948,4.3136,-1.5555,-11.3867,-5.6105,21.9356,0.0
1741737601.356000,339,19.6106,7.0915,-15.1646,-8.3536,1.9557,-2.8370,11.7399,3.3910,-14.7999,22.2562,22.7996,7.3104,-1.3191,-15.1973,-1.4414,28.9819,0.0
1741737601.360000,340,19.8007,6.1950,-12.9008,-11.1109,2.0441,-1.2171,9.7427,-3.2942,-8.2430,24.2119,19.1823,8.8121,0.4417,-14.8956,2.0136,33.0658,0.0
1741737601.364000,341,14.6121,5.3526,-13.3867,-15.9082,-1.5602,1.0700,8.3852,-8.2403,-5.5829,26.4376,15.6940,7.7660,2.5333,-16.8858,3.2077,29.3171,0.0
1741737601.368000,342,11.9782,7.8915,-11.4170,-12.8919,-3.4994,5.2628,5.3727,-15.4794,3.2176,24.1713,11.5045,8.8184,4.3191,-19.2016,9.1516,29.7127,0.0
1741737601.372000,343,6.5454,6.6721,-12.2314,-12.2271,-3.4884,7.2561,3.1452,-19.7523,5.8213,21.3896,4.6905,7.3409,5.6604,-17.3550,8.8544,26.2091,0.0
1741737601.376000,344,7.1941,7.8635,-9.0609,-9.5223,-4.0131,9.3209,2.6862,-22.1533,8.3826,17.0719,0.1976,8.6964,7.0783,-15.4607,8.2042,21.0488,0.0
1741737601.380000,345,1.9729,6.2805,-4.6974,-9.3497,-4.0197,11.4646,2.4943,-24.1343,12.9655,9.1508,-4.2300,11.8767,10.2911,-13.4974,9.3375,14.3526,0.0
1741737601.384000,346,0.6129,8.7186,-1.6344,-5.3837,-2.9439,10.0303,0.8109,-21.2384,13.7070,7.7486,-12.1581,10.5146,10.0828,-9.9583,4.9758,7.4263,0.0
1741737601.388000,347,-2.5306,10.2613,4.3112,-1.7396,-1.6869,6.8908,-0.6584,-20.8712,12.1152,3.0044,-15.1790,11.2426,10.6565,-4.9239,5.8720,-3.8346,0.0
1741737601.392000,348,-4.0865,12.1274,9.4792,4.2608,0.4814,4.7342,0.3587,-17.7788,10.0701,-1.7031,-16.3622,10.9954,11.7824,-5.0068,1.0073,-10.9641,0.0
1741737601.396000,349,-2.2842,11.8979,14.1040,5.6063,2.8698,2.3467,-0.4844,-15.2208,8.8162,-5.6976,-15.0221,5.6110,12.7864,-5.0233,-0.8657,-20.4323,0.0
1741737601.400000,350,-5.6120,9.7724,17.0670,7.6940,3.2574,0.6205,-0.8207,-11.0526,5.2129,-13.1333,-12.9077,5.0227,11.0571,-2.3599,-5.8386,-28.8921,0.0
1741737601.404000,351,-4.1457,7.9417,17.6485,6.1371,3.3845,-4.4946,-1.6349,-7.6340,3.2328,-14.6338,-10.4037,3.5465,7.5077,-3.3685,-8.9306,-36.5540,0.0
1741737601.408000,352,-7.6182,3.5658,19.9600,7.1280,3.1805,-6.3931,-6.7489,-1.2911,0.9320,-15.9056,-9.6605,4.6814,6.3837,-3.1848,-12.2288,-36.9743,0.0
1741737601.412000,353,-4.9451,3.4066,21.4732,7.3182,1.1925,-6.9240,-7.3004,1.3961,-2.7571,-20.6223,-6.7643,6.4651,4.3722,-5.8731,-16.4662,-39.6899,0.0
1741737601.416000,354,-2.5005,5.0433,22.4804,9.3654,2.7225,-9.6180,-7.6682,3.9110,-3.2470,-19.4929,-3.6339,9.1258,1.7615,-6.8058,-19.3601,-37.9080,0.0
1741737601.420000,355,1.3041,5.2245,20.6337,11.8596,3.1795,-8.5768,-11.7975,5.2857,-7.5805,-17.0795,-0.9015,8.4891,-3.7716,-8.5780,-18.2933,-33.6043,0.0
1741737601.424000,356,4.2995,7.1174,21.0366,13.5190,1.8127,-9.6797,-14.4344,6.4388,-10.4193,-14.5940,-0.0938,11.2297,-7.3122,-9.0098,-17.0586,-29.2043,0.0
1741737601.428000,357,7.9329,7.5986,17.0252,14.3539,0.7488,-10.0331,-13.4255,5.5212,-12.5832,-10.1246,2.2243,11.2362,-10.8727,-9.9527,-16.9481,-23.9939,0.0
1741737601.432000,358,14.5486,8.2580,16.8389,16.1304,-0.1831,-9.1619,-13.4619,5.6787,-16.8837,-5.0481,7.2953,12.9523,-13.6655,-9.2332,-12.1441,-15.6990,0.0
1741737601.436000,359,16.0310,5.7902,13.1041,15.6371,-1.0078,-7.5299,-12.1941,3.2728,-16.3577,-0.2233,8.0986,10.7219,-15.4282,-8.0893,-8.3812,-10.5081,0.0
1741737601.440000,360,15.1306,4.0131,13.4958,17.6167,-1.1250,-2.4175,-15.0004,-1.6723,-18.0917,2.5774,7.0477,12.8930,-15.3865,-10.9345,-3.9216,-6.0722,0.0
1741737601.444000,361,16.1105,1.4835,7.2093,16.8661,-2.6799,-2.5987,-13.7519,-4.4182,-20.0812,6.3740,6.7591,10.5868,-16.2467,-11.0337,-2.3723,1.9460,0.0
1741737601.448000,362,16.6988,-0.7674,6.0116,16.0745,-4.7672,0.6336,-13.0593,-12.3198,-19.5358,5.0198,3.2386,9.2328,-13.7582,-13.7685,1.2607,5.5330,0.0
1741737601.452000,363,15.8476,-0.5504,4.0578,16.0357,-6.4197,0.3170,-9.7894,-16.9334,-17.8962,6.0843,-1.9288,8.9256,-17.0598,-13.6956,-1.0667,12.4168,0.0
1741737601.456000,364,15.1835,-4.9189,2.9393,13.3166,-7.8185,1.1532,-8.7095,-19.7029,-20.6918,9.9900,-10.2870,9.4586,-12.8889,-12.5822,-0.0163,13.7763,0.0
1741737601.460000,365,12.3915,-7.4650,1.2454,16.1063,-7.0175,2.8273,-6.4379,-24.8757,-22.8823,8.6029,-11.9696,5.1609,-11.2710,-10.1898,1.7779,17.9207,0.0
1741737601.464000,366,10.1848,-9.0144,1.6848,15.7080,-9.4157,5.2970,-3.0651,-24.8380,-21.9356,7.9920,-12.6064,2.6392,-8.3002,-7.0479,-0.2016,16.7248,0.0
1741737601.468000,367,7.6982,-7.9654,1.7472,13.8526,-9.0143,4.4301,0.8460,-27.2340,-22.3400,6.7732,-18.4890,-0.7305,-2.8081,-5.9860,-0.1303,13.9715,0.0
1741737601.472000,368,4.5974,-8.9533,3.0970,11.5295,-9.7371,1.6952,6.0896,-21.2664,-21.9183,7.4869,-18.6623,-7.9953,-3.4904,-4.6399,-6.4605,10.9420,0.0
1741737601.476000,369,1.8887,-9.4748,3.6383,7.5235,-10.3061,-4.1838,7.4400,-22.4348,-23.0834,4.5454,-19.8514,-9.9222,-2.6990,-4.1779,-9.5871,7.3782,0.0
1741737601.480000,370,-0.1036,-8.0249,2.4872,2.8318,-10.6265,-7.4422,6.9927,-20.2631,-20.0755,-0.7698,-20.8023,-12.2755,1.4847,-3.0551,-16.9410,2.1980,0.0
1741737601.484000,371,-4.8143,-10.7473,0.3335,-1.6313,-9.9600,-6.9434,7.3133,-16.9712,-15.1669,-3.5574,-20.1543,-14.3744,1.5868,-2.4602,-19.1057,-3.0657,0.0
1741737601.488000,372,-7.5753,-9.2520,0.5054,-5.7084,-10.9230,-11.2639,6.1010,-11.4176,-9.4199,-5.1838,-20.0254,-14.9964,-1.4652,-3.6711,-22.2256,-5.6610,0.0
1741737601.492000,373,-12.0435,-8.0438,-1.4611,-7.6425,-12.0307,-12.6051,3.6604,-8.0842,-8.0562,-7.2500,-18.5140,-15.7041,-3.4133,-4.1729,-25.3089,-7.5730,0.0
1741737601.496000,374,-12.4286,-6.7536,-5.8572,-10.9219,-13.8747,-13.2047,-0.4215,-3.8413,-5.3209,-8.7619,-15.7840,-15.9572,-6.2639,-4.1824,-27.7255,-10.4638,0.0
1741737601.500000,375,-12.6940,-5.0240,-6.0762,-12.8125,-11.8217,-15.7748,-3.8669,-0.7240,1.3860,-8.5348,-12.0134,-12.5263,-7.7408,-6.1478,-30.2901,-12.6244,0.0
1741737601.504000,376,-13.1280,-4.3820,-7.6345,-14.3353,-13.6432,-18.3957,-7.5056,1.4089,3.2027,-14.3382,-11.9274,-14.1847,-9.4782,-7.4589,-25.4967,-11.1029,0.0
1741737601.508000,377,-12.8820,-4.2790,-9.5942,-13.9355,-11.5574,-21.6941,-12.3830,4.1058,8.5998,-10.2745,-7.1760,-11.1607,-14.9215,-10.4792,-25.4103,-13.2502,0.0
1741737601.512000,378,-14.7011,-4.4741,-11.6521,-16.2175,-9.5135,-21.3192,-16.4788,6.6725,11.6382,-12.1052,-6.7562,-10.5885,-16.7053,-11.1719,-20.2639,-15.1117,0.0
1741737601.516000,379,-10.7937,-6.0110,-15.0969,-16.2544,-6.4423,-20.5906,-21.5604,4.9904,13.2758,-13.8483,-1.2296,-7.6005,-17.7451,-15.1216,-12.6233,-14.2780,0.0
1741737601.520000,380,-10.1335,-6.8744,-15.7381,-18.9470,-4.8469,-18.5152,-25.3441,4.6501,15.1135,-14.7533,0.2825,-4.3385,-17.3052,-15.1913,-6.8259,-14.3540,0.0
1741737601.524000,381,-8.6797,-12.1783,-17.7175,-17.6798,-6.7866,-16.0361,-28.4507,-0.0668,14.6421,-16.6991,0.7206,-0.8707,-18.3042,-15.0304,-0.5525,-13.2915,0.0
1741737601.528000,382,-8.9443,-13.0900,-21.3161,-16.6358,-6.5112,-14.7970,-29.2556,-3.3555,15.5702,-18.2370,-2.2339,3.5753,-17.1033,-15.1167,4.5706,-15.8767,0.0
1741737601.532000,383,-8.5383,-14.2781,-24.9145,-15.0929,-7.5047,-8.9648,-29.3203,-6.3021,13.2789,-18.2949,-3.9262,3.0719,-16.9164,-15.1567,10.8015,-14.3408,0.0
1741737601.536000,384,-9.9910,-17.5044,-23.6635,-11.6187,-5.7205,-5.3529,-27.5799,-7.8805,8.3684,-18.2209,-6.5159,4.2435,-15.2381,-11.0850,14.5241,-12.1235,0.0
1741737601.540000,385,-8.3309,-17.0735,-25.6368,-8.7919,-5.6052,1.4353,-23.0320,-10.3049,4.3886,-18.4454,-9.4852,5.7970,-13.8310,-7.9787,21.1127,-10.7507,0.0
1741737601.544000,386,-8.9816,-20.1181,-22.0675,-5.6342,-5.0368,2.1751,-20.6553,-12.0358,-2.3353,-15.1141,-12.9525,4.5104,-10.9894,0.4997,23.9519,-8.3602,0.0
1741737601.548000,387,-7.4876,-20.1323,-20.8455,-7.2558,-6.7563,2.8205,-14.2483,-12.5577,-3.9281,-14.2347,-14.1275,5.0011,-5.2758,4.9994,22.5612,-8.8649,0.0
1741737601.552000,388,-6.0539,-21.1951,-19.0336,-6.4221,-6.1328,5.7248,-10.5728,-7.8725,-10.4705,-11.5748,-15.5579,-0.0755,-2.6693,9.7205,21.3428,-7.3618,0.0
1741737601.556000,389,-7.7663,-20.8955,-15.7544,-7.0368,-8.3284,8.1142,-3.3640,-7.7714,-13.7418,-11.1177,-17.9746,-2.9518,1.7289,12.8506,20.2587,-5.9126,0.0
1741737601.560000,390,-6.9196,-20.8089,-13.8531,-7.5592,-9.1943,8.1446,-0.5151,-2.9824,-16.4963,-6.3204,-17.8845,-7.5145,6.2025,14.1644,12.6744,-4.0749,0.0
1741737601.564000,391,-9.0502,-18.8788,-13.1898,-7.2182,-11.2391,8.6972,4.0394,-1.3473,-19.0352,-3.7016,-18.1519,-9.3593,9.3759,20.9661,10.7806,-0.8472,0.0
1741737601.568000,392,-6.8207,-18.6000,-13.7129,-10.6749,-11.2334,5.7050,8.2499,3.1386,-18.1652,-1.9095,-17.8183,-14.1163,8.2210,19.9638,4.8824,0.2766,0.0
1741737601.572000,393,-6.8539,-14.8360,-9.9238,-13.4084,-15.8501,4.9192,9.4117,8.6090,-18.5552,1.8572,-15.8695,-14.6382,8.2474,23.2604,-0.3774,5.7527,0.0
1741737601.576000,394,-5.8940,-12.2782,-10.2031,-15.2117,-16.0710,0.7656,12.5635,10.5497,-16.0838,3.7233,-16.9886,-14.7020,6.0232,21.8260,-7.2974,7.4769,0.0
1741737601.580000,395,-8.0488,-6.5677,-4.9962,-17.2565,-15.8136,-0.7849,10.9716,15.7583,-13.6593,8.2927,-13.6189,-14.2801,3.4726,23.1843,-9.5890,8.9786,0.0
1741737601.584000,396,-5.8924,-1.6264,-2.7218,-18.8781,-12.4657,-3.9225,12.0763,21.0952,-10.1679,8.5404,-9.8730,-14.1725,1.8927,21.2259,-14.6738,14.1498,0.0
1741737601.588000,397,-3.8123,1.4557,-2.9962,-18.5957,-13.8021,-5.2819,9.8495,21.3568,-5.6255,11.5004,-7.3139,-14.2285,0.4536,18.2240,-12.1995,15.2161,0.0
1741737601.592000,398,-3.4862,6.2033,3.0585,-18.6955,-10.9891,-9.4817,7.3400,20.8890,0.8713,12.6564,-3.5477,-13.6155,-0.4157,10.8560,-12.4504,16.7532,0.0
1741737601.596000,399,-1.6043,5.8430,3.9239,-17.6013,-9.0057,-10.9636,2.9198,20.3574,6.0294,13.1445,1.3297,-11.0994,-3.4352,7.3135,-14.9899,17.0003,0.0
1741737601.600000,400,-4.5304,7.9050,2.3248,-16.4901,-4.2281,-11.5344,-1.6819,18.9484,10.3164,6.7083,1.7221,-11.1341,-6.7617,2.6347,-11.4997,14.1708,0.0
1741737601.604000,401,-3.7666,10.0331,7.4860,-15.9968,-2.9082,-10.5431,-7.2619,10.5213,13.9676,3.4780,6.3184,-5.8764,-9.1327,-2.0389,-10.5733,13.5134,0.0
1741737601.608000,402,-3.0998,7.1409,6.7872,-15.5702,-0.9248,-11.0892,-10.2733,6.0984,17.4598,-0.7721,7.6707,-3.5263,-13.9038,-4.6581,-8.1534,12.2653,0.0
1741737601.612000,403,-4.4049,9.4275,6.4827,-11.1096,2.4132,-8.2874,-14.0806,-0.9640,17.6295,-7.4364,8.8008,-2.5775,-12.4696,-10.1795,-4.9621,6.8493,0.0
1741737601.616000,404,-5.1453,9.7752,6.5703,-5.7699,4.9675,-8.6845,-20.3280,-6.3833,16.2545,-11.3355,8.0452,-1.8598,-17.9469,-10.8973,-0.7066,4.3016,0.0
1741737601.620000,405,-6.3552,9.3910,8.5731,-1.3267,6.5261,-5.1546,-20.4546,-12.1641,13.5188,-15.7399,7.5297,-4.1713,-19.4318,-12.8243,2.0026,2.5009,0.0
1741737601.624000,406,-6.4498,8.0897,6.7437,2.6845,8.9545,-4.0119,-21.2576,-16.9099,10.2322,-19.1107,7.5755,-2.8225,-19.9101,-13.4620,5.7313,-2.9893,0.0
1741737601.628000,407,-7.7886,5.2578,6.3099,6.0481,10.1078,-3.6143,-20.3936,-20.0019,5.9913,-22.8340,8.5239,-5.8459,-18.7512,-13.7064,7.3000,-7.4759,0.0
1741737601.632000,408,-9.5171,4.1419,4.4120,9.7681,9.0805,-0.4440,-17.0047,-21.2150,2.6069,-23.4411,11.1995,-7.3726,-18.3749,-12.1229,10.4203,-12.5794,0.0
1741737601.636000,409,-6.8066,-0.0787,4.1962,9.1266,8.9506,-0.3474,-17.1008,-22.2158,-4.5027,-23.7675,10.3574,-9.5754,-14.1396,-10.9735,10.3287,-17.6130,0.0
1741737601.640000,410,-8.1162,-0.5370,-0.3182,9.8544,5.7894,1.7788,-15.6667,-24.7455,-9.9170,-22.5797,10.8316,-12.1418,-13.3194,-7.1914,9.1509,-18.1657,0.0
1741737601.644000,411,-8.2565,-2.0664,-1.8217,10.7458,4.3465,4.9937,-10.4621,-21.7837,-13.9551,-22.1705,9.5695,-14.8915,-10.1068,-7.6913,5.6802,-21.2626,0.0
1741737601.648000,412,-8.9147,-7.8498,-5.1829,8.3687,2.4507,4.8252,-7.4725,-18.2164,-16.5027,-18.3015,6.8911,-18.9148,-8.2118,-5.8934,3.6891,-19.2181,0.0
1741737601.652000,413,-8.0718,-9.2830,-9.5224,8.4379,2.6015,10.8266,-1.2846,-14.3586,-20.9713,-11.1630,6.3249,-19.0079,-3.4733,-1.9883,3.3461,-18.6609,0.0
1741737601.656000,414,-8.1656,-10.0817,-14.7199,7.4731,0.7039,8.4536,1.0785,-9.7598,-22.6464,-3.8826,7.4243,-18.3834,-3.1103,-0.2233,1.0520,-13.9877,0.0
1741737601.660000,415,-8.2645,-12.2363,-16.9261,6.9587,-1.5913,10.7259,5.1779,-3.8711,-20.6933,2.3320,6.2553,-21.2682,2.1651,0.6873,-3.4041,-11.9188,0.0
1741737601.664000,416,-6.7334,-11.2864,-20.0856,5.6435,0.2196,11.8623,12.6390,3.3199,-21.3880,8.7212,5.0435,-19.0430,5.8838,2.1654,-3.3423,-6.5342,0.0
1741737601.668000,417,-5.3285,-9.2715,-20.8838,3.7198,0.4933,11.7632,14.5079,6.2998,-17.7267,17.6829,6.2866,-18.4091,9.0375,4.4268,-6.8679,-1.0907,0.0
1741737601.672000,418,-10.1924,-9.6788,-23.3771,0.8364,4.6773,12.4166,13.4924,10.3312,-13.3784,22.3695,3.9913,-16.7592,14.3389,7.0386,-7.1271,8.7970,0.0
1741737601.676000,419,-9.7467,-8.2701,-26.8209,-2.0920,1.7327,11.8235,16.7104,15.9816,-8.9337,25.2067,1.7367,-14.3604,14.7443,2.9749,-7.4550,16.3823,0.0
1741737601.680000,420,-11.1637,-8.1142,-27.9387,-1.9869,6.7070,11.5677,15.7138,18.4167,-2.0711,27.5717,0.6450,-10.6521,16.1980,1.3031,-6.1779,20.2691,0.0
1741737601.684000,421,-12.0045,-7.0053,-28.1282,-6.0627,6.4275,12.9926,16.0400,19.6157,6.2654,29.4724,-0.6060,-8.5995,15.4318,0.9831,-5.1731,26.2618,0.0
1741737601.688000,422,-9.2506,-2.4150,-27.1312,-4.7938,7.0912,11.6939,13.6649,21.0577,10.7884,27.7353,-2.0247,-1.7028,17.5857,-1.8203,-5.5750,30.5227,0.0
1741737601.692000,423,-13.7452,-0.6381,-27.2580,-5.2975,6.2866,10.9813,10.4147,21.4854,14.9775,27.0012,-3.6387,2.4152,16.4871,-1.0938,-3.9015,31.2167,0.0
1741737601.696000,424,-11.1365,4.5114,-23.2289,-4.8310,7.2660,8.7435,7.9787,18.1188,20.4846,22.3892,-3.6571,4.4219,17.5911,-3.7842,-2.2909,31.4053,0.0
1741737601.700000,425,-8.7023,5.0582,-21.1224,-3.8623,8.2588,6.8905,4.0497,14.4800,21.1762,15.8287,-3.2727,5.6000,13.7252,-3.8389,0.2658,27.9336,0.0
1741737601.704000,426,-8.8411,11.1893,-18.6419,-3.1540,7.9285,2.9876,1.6996,13.1093,24.1774,7.4249,-6.9756,10.7819,10.2941,-6.4706,6.2470,27.4801,0.0
1741737601.708000,427,-3.6077,12.1191,-13.3590,-0.2515,5.8089,1.5953,-1.1882,10.2215,21.5236,3.2679,-6.1425,14.9213,10.3272,-5.0956,7.9885,21.2167,0.0
1741737601.712000,428,-0.2100,14.3196,-9.1265,-0.4405,5.5565,0.0001,-2.2200,7.9432,19.9670,-2.6736,-3.7928,16.5066,8.7691,-2.2779,12.3717,15.7519,0.0
1741737601.716000,429,2.3294,16.4705,-2.1946,0.2607,3.3620,-1.1710,-4.0913,3.4033,17.5806,-9.9276,-3.0200,18.9403,5.2782,-2.4950,14.7161,7.9912,0.0
1741737601.720000,430,7.0357,11.0790,3.5476,0.6091,-1.8402,-2.2916,-4.5423,-0.1461,14.6645,-15.7126,-2.7691,17.3850,3.3379,0.8577,15.7688,-0.1070,0.0
1741737601.724000,431,11.8155,12.5743,9.8045,1.9189,-2.3115,-2.9989,-5.0652,-4.9221,9.1633,-21.1155,-2.4056,18.9158,3.4594,2.2108,14.4502,-7.4280,0.0
1741737601.728000,432,12.5163,12.9057,12.8226,2.9945,-7.0614,-3.3628,-5.7834,-5.9628,4.1928,-21.4304,-2.0062,18.2827,1.6203,2.0468,12.5847,-13.5136,0.0
1741737601.732000,433,17.5624,10.8993,17.5932,6.0046,-9.6810,-2.9558,-5.6323,-5.6482,-1.4804,-20.4883,-2.8322,13.1442,-2.5326,5.5133,12.4444,-20.0725,0.0
1741737601.736000,434,20.5248,10.2058,19.7024,5.9555,-11.8508,-3.3184,-6.5926,-8.8471,-4.3440,-20.9126,-3.5477,13.1462,-4.8434,10.4831,8.1360,-22.2917,0.0
1741737601.740000,435,21.1136,8.2837,23.6789,5.2131,-13.5392,-0.2572,-4.2327,-11.5654,-9.9648,-17.2678,-5.0820,10.6819,-3.4780,14.6595,9.0671,-26.3309,0.0
1741737601.744000,436,23.1296,6.1600,24.9507,5.0297,-14.4567,0.4160,-1.7748,-9.1977,-15.6525,-12.5843,-3.3230,8.3277,-4.9013,15.1672,8.9757,-28.4536,0.0
1741737601.748000,437,25.3192,6.4932,23.9672,6.1502,-14.4990,0.9558,-1.1178,-10.1853,-16.3782,-6.9193,-3.6895,2.4535,-5.0580,16.2602,5.4089,-27.8821,0.0
1741737601.752000,438,22.7288,5.4263,25.7542,3.1516,-17.0441,1.8373,-0.8458,-11.3243,-19.7965,-3.1595,-4.2335,0.2718,-5.1360,15.2690,-0.4542,-26.2038,0.0
1741737601.756000,439,21.6050,3.1979,24.9321,3.0831,-13.9974,-0.8434,0.4203,-7.2893,-20.7720,2.3090,-4.7070,-2.9475,-2.1021,14.1733,-2.2195,-24.3331,0.0
1741737601.760000,440,18.9819,-1.9846,23.4765,1.9895,-10.8546,-3.8773,-0.9157,-7.6977,-17.9317,5.6287,-3.5038,-4.9614,-2.1607,12.4126,-5.8966,-19.2873,0.0
1741737601.764000,441,15.0963,-1.7015,21.0429,-0.8710,-8.6948,-2.4389,0.4372,-4.3832,-15.8562,8.8700,-2.8877,-8.4389,-0.2045,7.4036,-9.4500,-13.8368,0.0
1741737601.768000,442,11.0360,-3.8383,16.5242,-4.3043,-3.7977,-2.1138,0.8199,-2.7664,-13.6924,11.2351,-1.4533,-7.4057,0.0783,7.0009,-10.7362,-7.9213,0.0
1741737601.772000,443,7.3351,-5.8340,10.7725,-3.3641,-1.7009,-3.6994,0.8271,-2.9287,-12.8453,14.0557,0.4762,-6.8038,-0.1801,-0.1625,-12.9669,-3.6773,0.0
1741737601.776000,444,3.4534,-9.6053,9.0715,-5.8091,0.9082,-6.2009,-0.7407,-2.1931,-8.5596,11.1610,1.1011,-5.2373,-1.3360,-0.9186,-13.3699,-1.2420,0.0
1741737601.780000,445,0.3831,-9.7283,8.3921,-6.3242,5.1504,-9.0243,-3.1078,1.0150,-7.9236,10.2093,2.8710,-4.6219,-0.4364,-5.5365,-13.4807,4.3505,0.0
1741737601.784000,446,-2.9160,-8.0871,3.7117,-6.6134,8.4918,-10.5243,-1.0622,4.3280,-5.5913,7.4959,6.4294,-1.5164,-2.3560,-9.2350,-14.4534,6.9432,0.0
1741737601.788000,447,-5.4995,-6.8564,1.8506,-7.0228,11.8279,-12.4401,-2.9985,3.3670,-3.2249,1.8316,5.4173,-1.3655,-0.4490,-10.7146,-13.8400,11.9415,0.0
1741737601.792000,448,-7.6225,-7.8377,-2.0161,-6.8856,15.5211,-12.7898,-3.6743,3.1646,1.5312,-2.3215,8.6963,-1.4589,0.1427,-11.9402,-10.3433,11.8197,0.0
1741737601.796000,449,-8.1547,-8.2276,-2.2546,-6.5566,15.0749,-15.2158,-4.3063,3.2478,2.9686,-3.0452,8.8721,-0.2835,0.1084,-12.7967,-7.8117,10.7528,0.0
1741737601.800000,450,-9.0087,-7.2592,-5.0822,-6.3903,15.5646,-14.0420,-8.4475,2.3833,6.2683,-9.4771,11.7176,-1.4765,-0.8128,-12.8291,-5.8176,14.4794,0.0
1741737601.804000,451,-10.1691,-8.9271,-6.4394,-4.9169,15.1382,-11.9419,-10.2357,0.5635,6.9284,-9.3052,13.5580,-0.9404,-3.1869,-11.9189,-5.3254,12.5953,0.0
1741737601.808000,452,-10.7609,-6.0782,-6.5745,-3.4258,10.6144,-8.5394,-10.4703,-2.2687,10.1431,-10.7850,11.7080,0.3068,-4.0715,-10.2182,-1.8615,10.6195,0.0
1741737601.812000,453,-9.4899,-4.1261,-9.6513,2.9024,8.4208,-4.8756,-10.7872,-1.6303,10.3611,-12.9293,11.9729,-0.3719,-6.3616,-8.0291,-2.2972,9.7662,0.0
1741737601.816000,454,-6.3914,-2.0138,-9.5034,4.6331,6.4482,1.5829,-9.2564,-4.1767,9.0531,-13.8883,11.0753,-0.0298,-10.4957,-5.9923,2.7015,9.7361,0.0
1741737601.820000,455,-7.0496,2.3281,-10.8237,8.5808,2.7651,5.3384,-10.1220,-3.3361,10.5362,-11.9869,8.3822,-0.5011,-10.8657,-3.8574,3.3447,9.9702,0.0
1741737601.824000,456,-3.2765,4.3693,-8.0930,10.4036,1.4162,10.2746,-11.1546,-6.8104,10.7684,-10.3639,6.3508,-1.2447,-10.7323,-0.1006,6.4730,7.6305,0.0
1741737601.828000,457,0.7479,7.8493,-8.8392,12.2224,-2.3454,13.3466,-12.1596,-6.7018,10.6407,-6.8071,6.0532,-4.2974,-12.0529,1.6378,7.9960,5.6099,0.0
1741737601.832000,458,3.4116,7.8482,-8.2916,15.1778,-1.4914,17.1520,-8.6369,-5.0562,6.1626,-3.3194,4.4687,-2.5955,-11.5900,4.4751,9.9628,3.3339,0.0
1741737601.836000,459,2.0591,9.3891,-7.8609,15.1571,-4.7393,20.7789,-6.4533,-5.7967,2.3624,-0.1055,2.8287,-6.0624,-8.3382,6.1361,10.6814,2.3097,0.0
1741737601.840000,460,3.9176,9.2820,-8.5440,16.1386,-7.7910,21.7090,-3.9429,-9.3874,-0.2102,3.6225,1.9969,-7.3076,-5.8908,6.1089,8.9693,0.8894,0.0
1741737601.844000,461,1.1273,5.5267,-11.5384,15.3646,-6.9991,22.3332,-2.0005,-7.2819,-3.0566,6.8167,-0.9303,-6.8420,-4.8481,8.1403,6.8886,-3.6432,0.0
1741737601.848000,462,1.0082,4.7703,-10.9101,17.4188,-9.5112,22.2928,0.0356,-6.4320,-4.4451,11.7000,-5.8301,-8.6048,-3.0733,10.0072,4.7955,-3.4855,0.0
1741737601.852000,463,0.7815,4.2690,-13.1342,14.6172,-8.5373,21.0196,3.7368,-2.4166,-9.9730,13.0844,-9.3698,-6.9708,1.1096,6.4700,0.6023,-5.9643,0.0
1741737601.856000,464,-2.1545,4.8459,-9.9257,11.9357,-3.6008,21.8321,6.8164,-0.7607,-11.3989,14.8201,-8.4863,-5.6857,4.0269,8.3580,-0.3921,-4.5306,0.0
1741737601.860000,465,-3.1884,5.4566,-8.6171,9.6290,-1.9096,16.2439,10.9848,2.0271,-13.6021,15.5921,-10.7692,-5.1564,6.8230,7.3945,-2.9860,-5.8225,0.0
1741737601.864000,466,-4.7243,3.5095,-6.0259,11.4539,0.5559,12.0497,12.8731,2.8686,-15.3401,16.2878,-10.8438,-2.6820,11.0684,6.3532,-5.3266,-5.0760,0.0
1741737601.868000,467,-4.6833,2.0679,-5.8055,8.2766,2.6334,5.7058,14.1020,5.4143,-14.8525,17.9062,-9.4327,-3.2602,13.6801,6.9150,-6.8580,-5.0688,0.0
1741737601.872000,468,-6.4395,-0.4354,-6.1671,4.7875,3.1920,2.2819,17.6248,8.3306,-14.9671,14.1697,-9.1581,-6.3917,14.3021,5.6601,-9.1174,-4.0795,0.0
1741737601.876000,469,-8.2865,-1.7529,-6.1055,0.8947,4.6114,-4.8989,21.3270,12.2702,-13.7073,11.8492,-10.2673,-5.5211,14.2469,2.3116,-9.5795,-4.1363,0.0
1741737601.880000,470,-8.4384,-4.8070,-4.6912,-0.7677,4.6752,-7.3660,19.2985,13.9158,-12.5732,7.5356,-6.8291,-3.6251,15.1124,2.4967,-8.8285,-2.3099,0.0
1741737601.884000,471,-8.7663,-7.4540,-4.5708,-4.2146,5.0553,-11.9707,17.2685,16.2886,-8.0382,3.0463,-4.1379,-0.2773,14.3783,0.2465,-9.3924,-2.6864,0.0
1741737601.888000,472,-6.4776,-6.4611,-3.3617,-10.7041,3.5905,-12.5310,14.3251,17.3963,-3.4523,-0.9826,-2.5696,2.1436,15.8719,-2.3628,-8.6228,0.7959,0.0
1741737601.892000,473,-5.8276,-6.6734,-1.5968,-11.7323,0.6865,-13.9255,11.2828,14.6561,3.4945,-2.7947,-1.4001,5.4089,12.9636,-4.1447,-3.8721,1.7925,0.0
1741737601.896000,474,-0.6195,-2.8641,-3.4004,-15.7394,1.3907,-15.8326,7.0521,12.3996,8.4408,-4.6116,1.2227,5.2364,11.4324,-5.2858,-2.8799,5.7460,0.0
1741737601.900000,475,4.4029,-0.5522,-2.3472,-15.5802,-1.1348,-13.0890,2.6452,12.7867,12.8508,-9.2367,4.1697,10.8062,6.0580,-2.9038,3.1446,9.7623,0.0
1741737601.904000,476,4.7824,-2.3387,-0.0695,-16.7929,-2.1212,-11.1888,-3.2794,10.3783,16.5098,-10.8601,6.1328,7.8442,3.7151,-3.2036,9.5368,10.6270,0.0
1741737601.908000,477,9.8554,0.5556,-0.6520,-15.6354,-4.5827,-10.7407,-7.5946,5.9069,21.8520,-12.1469,9.4880,7.9967,3.7567,-0.8094,10.7798,13.0317,0.0
1741737601.912000,478,10.0335,-1.6841,3.6110,-15.4224,-4.5587,-6.7652,-11.6635,4.6534,25.5773,-15.0474,11.5424,8.6523,3.2431,-0.2740,17.0380,13.3833,0.0
1741737601.916000,479,14.4135,1.7641,3.4675,-14.0994,-7.0121,-1.4758,-12.8708,3.5967,26.9497,-15.9020,11.6515,7.7017,1.5818,3.4644,17.7240,12.8162,0.0
1741737601.920000,480,17.0324,4.1752,7.2689,-14.5486,-8.7530,1.1240,-18.7584,-2.2577,29.8887,-14.7917,10.7428,8.0334,0.7944,2.7388,21.7690,10.2393,0.0
1741737601.924000,481,17.2057,6.5658,8.6340,-12.8552,-8.6709,5.0362,-19.2460,-3.6315,28.0469,-15.7716,11.6074,7.8905,0.7860,6.0740,19.2757,10.4150,0.0
1741737601.928000,482,16.9272,7.5398,7.7611,-7.3164,-7.6098,9.9779,-20.5021,-6.7238,25.5326,-15.8210,6.8363,7.9546,-0.3620,6.0709,21.8509,7.6576,0.0
1741737601.932000,483,17.6487,7.5997,8.9389,-5.3339,-8.2044,13.6020,-23.7073,-7.8722,20.1350,-13.9185,5.5665,8.0919,-2.1605,9.2196,19.7115,6.4863,0.0
1741737601.936000,484,17.1720,9.3511,12.0298,0.4359,-7.6183,14.0114,-22.1925,-11.0557,15.0029,-10.7912,4.5113,6.6639,-1.3067,14.4694,19.8420,3.9610,0.0
1741737601.940000,485,18.3693,9.6834,12.3786,5.8427,-6.1519,16.3976,-15.8676,-8.4427,7.3385,-6.6614,3.5772,5.4642,-2.6480,15.8007,17.4234,-1.2331,0.0
1741737601.944000,486,18.8911,9.2701,14.9507,6.3424,-2.9904,14.3135,-12.4402,-7.4835,-0.5050,-2.4881,1.6525,2.1647,-0.2075,18.1877,10.0974,-6.1617,0.0
1741737601.948000,487,17.1732,12.1201,16.2954,9.8773,0.1088,9.1230,-7.9475,-5.6543,-5.9956,-0.3057,-0.6409,3.3879,-0.4459,15.8070,9.0287,-9.7107,0.0
1741737601.952000,488,13.8083,9.1664,16.7240,10.6828,3.2210,6.1208,-0.9637,-6.1968,-11.4980,1.3583,-2.3979,2.6406,3.9155,15.9722,0.5624,-13.0964,0.0
1741737601.956000,489,15.2019,8.8357,19.6611,12.5061,7.3267,6.0382,3.3144,0.7286,-18.2660,7.3021,-3.7488,0.5929,6.4049,15.7806,-3.6530,-13.7766,0.0
1741737601.960000,490,12.7256,7.2896,19.8848,12.7015,9.2862,3.4393,4.7577,0.8152,-24.0077,8.8800,-1.4709,0.4867,5.6875,14.6525,-7.1493,-20.0564,0.0
1741737601.964000,491,10.8606,5.4346,14.8790,11.4099,9.3345,1.2057,8.8055,3.6883,-28.2312,11.8448,-0.0914,1.0900,6.6501,11.5745,-12.5623,-19.5240,0.0
1741737601.968000,492,5.9705,1.5815,12.1170,11.9484,10.9541,-0.6881,9.0012,3.2007,-28.3067,13.5985,0.9063,3.1160,2.6666,9.0392,-18.3418,-18.1256,0.0
1741737601.972000,493,0.8290,1.5239,10.1641,11.3664,11.4583,-1.4267,11.1671,7.4736,-31.2310,16.3396,0.4463,4.4527,0.8281,5.5536,-20.0188,-16.4201,0.0
1741737601.976000,494,-1.4030,-0.6169,3.7434,8.6733,10.9922,-3.6951,14.7493,7.2905,-28.1762,16.5457,4.5463,3.6342,-1.4613,3.4970,-21.1291,-13.6752,0.0
1741737601.980000,495,-2.2408,1.2905,5.3059,7.3854,15.1987,-4.2063,15.5160,8.0956,-27.9976,18.2860,5.1244,2.5388,-1.3553,0.5879,-19.6952,-8.6413,0.0
1741737601.984000,496,-5.7618,0.7626,1.4387,8.0095,14.5633,-2.3806,13.8625,6.2715,-25.1106,13.8554,8.5259,-1.5299,-2.1462,-2.3980,-20.4712,-4.0795,0.0
1741737601.988000,497,-8.4195,3.1848,-0.5052,6.8007,16.4861,-3.4390,12.6217,5.5460,-18.6169,12.9155,12.1675,-0.9033,-5.6077,-8.8564,-16.7745,0.8803,0.0
1741737601.992000,498,-10.8633,3.4416,-4.0320,4.3289,11.7904,-0.8132,8.8309,2.3096,-11.7831,10.1167,12.6081,-4.3276,-8.2190,-12.6485,-14.5236,8.5651,0.0
1741737601.996000,499,-14.1167,-1.4228,-8.0058,1.8558,10.4168,1.6324,7.1656,-1.9558,-5.3869,10.1276,15.4459,-5.8143,-9.5283,-14.8735,-10.4505,13.0993,0.0
1741737602.000000,500,-17.1641,-2.2878,-13.2799,-0.5437,8.1370,1.7045,2.2668,-5.7685,-0.5341,4.9584,17.3415,-6.9149,-10.6686,-18.2904,-10.1073,16.2734,0.0
1741737602.004000,501,-20.1360,-4.7695,-15.9459,0.8795,6.6467,6.2929,-2.0346,-10.4594,6.2738,1.3746,16.4923,-6.1222,-14.1177,-18.4176,-6.7249,19.0188,0.0
1741737602.008000,502,-23.4333,-2.7020,-19.4904,0.2758,4.0990,9.9712,-5.3299,-15.2957,10.1723,-4.1542,18.4726,-6.9644,-12.6457,-16.9710,-0.3942,23.5404,0.0
1741737602.012000,503,-23.1791,-0.8149,-20.7757,3.9412,2.2019,10.7510,-6.5685,-16.9826,11.6144,-8.0465,13.4057,-8.8100,-12.4346,-17.1577,1.9036,23.4698,0.0
1741737602.016000,504,-19.8763,-0.5061,-22.3098,4.4557,-0.1615,11.4874,-9.7845,-20.7214,14.9260,-12.2099,11.4359,-9.1263,-13.7930,-15.9263,0.9847,25.2922,0.0
1741737602.020000,505,-13.7740,2.4168,-21.6077,5.4487,2.3030,10.5967,-8.2019,-21.5868,16.1349,-10.3872,7.9674,-10.1986,-7.9507,-13.5777,1.9142,23.8380,0.0
1741737602.024000,506,-10.1392,2.2862,-17.7441,6.9302,4.2205,9.1601,-9.4683,-19.8801,14.4110,-12.1956,7.1134,-10.8039,-7.4691,-8.3726,2.0477,22.5817,0.0
1741737602.028000,507,-9.0687,1.9300,-14.1571,7.3352,2.1127,9.0261,-5.1966,-16.1108,15.3360,-10.3102,5.8414,-10.9378,-2.4274,-7.1040,7.2022,20.2554,0.0
1741737602.032000,508,-3.8886,1.8247,-10.8844,9.1429,1.2520,6.6610,-2.2267,-15.1719,14.3806,-9.6384,4.7939,-11.8915,2.1527,-3.3309,7.0176,12.2803,0.0
1741737602.036000,509,-3.8509,0.2300,-10.0832,10.7602,0.8717,4.2589,-1.0476,-10.2087,12.4542,-7.8947,-1.2859,-14.7967,6.2711,-2.8216,4.8357,8.2573,0.0
1741737602.040000,510,2.3766,2.0615,-7.0256,9.5762,-2.1950,2.9182,3.2262,-7.3623,12.3692,-5.6617,-0.8035,-12.7565,9.4280,1.2711,1.7521,2.7846,0.0
1741737602.044000,511,5.7079,0.6371,-6.7363,9.0991,-0.7286,4.5656,3.6607,0.0033,9.2676,-1.1427,-6.6656,-9.7135,11.2265,2.5776,2.4523,-1.2853,0.0
1741737602.048000,512,8.8893,2.1310,-4.0212,9.7592,-3.5121,3.6837,5.7664,3.8934,7.9818,2.1890,-9.8361,-4.1035,15.3413,6.5612,-0.3399,-3.8794,0.0
1741737602.052000,513,9.6794,3.1515,-0.0764,8.3084,-3.2668,3.9692,4.8756,11.9979,7.3952,5.3213,-15.1588,0.6535,16.6735,7.6267,-0.0480,-5.2749,0.0
1741737602.056000,514,14.7871,8.2776,2.6719,6.9408,-2.6282,4.4776,6.5317,15.5971,5.1286,12.2248,-17.7015,4.6728,18.7096,11.1393,1.2220,-8.7927,0.0
1741737602.060000,515,20.2694,12.5915,6.6607,9.9620,-2.7238,4.4782,8.8722,22.8316,4.7811,16.8582,-17.9240,9.0333,21.0671,13.6381,4.4817,-10.5920,0.0
1741737602.064000,516,24.2472,12.9669,6.7947,6.9763,-2.8217,3.5191,10.6170,28.3709,6.6457,20.8116,-16.1177,11.6819,22.5114,15.0675,8.8028,-10.4402,0.0
1741737602.068000,517,22.3267,11.9851,8.8209,6.3196,-1.6416,1.3518,10.6620,29.7036,8.2598,19.9916,-16.2455,14.8489,22.1553,14.1928,10.1284,-9.5785,0.0
1741737602.072000,518,23.0527,12.0157,8.1964,0.9440,-2.6381,2.4825,10.6766,34.2603,6.9391,18.9649,-15.7252,17.2638,23.3009,14.7755,11.1792,-10.1876,0.0
1741737602.076000,519,21.4714,10.2185,8.2050,-0.6039,-1.8094,2.6347,8.5453,35.3961,7.9122,17.4677,-11.7587,23.6698,24.3960,14.9819,14.7503,-9.4598,0.0
1741737602.080000,520,17.1794,8.9765,9.2996,-3.4545,-3.8503,6.7848,5.2667,33.8592,9.3715,12.9064,-11.3591,27.6056,21.9620,16.8375,18.0108,-7.1360,0.0
1741737602.084000,521,18.6055,5.8777,8.4574,-7.1540,-4.0046,5.5283,1.5761,29.7615,10.5211,9.2996,-10.0693,29.7281,21.1527,15.8922,18.7816,-6.5489,0.0
1741737602.088000,522,17.1637,4.8051,7.8319,-6.2554,-5.6284,9.9905,2.2779,25.8774,9.8581,2.5337,-8.3661,34.7445,18.0213,16.5421,22.2032,-5.0138,0.0
1741737602.092000,523,17.3781,5.4050,8.1382,-9.3693,-9.8750,9.4566,-1.8818,19.6949,10.2582,-2.2527,-5.8000,34.3457,14.2000,20.8913,23.3465,-4.3663,0.0
1741737602.096000,524,15.5047,-0.4913,9.2825,-8.6637,-6.7832,8.5180,0.4735,13.4392,7.3889,-6.1296,-4.8614,32.8030,11.5911,22.0811,26.1877,-0.7440,0.0
1741737602.100000,525,15.7462,-0.9101,12.2876,-6.3752,-5.4994,6.9589,-0.3744,11.7036,4.6893,-11.9380,-3.1019,28.6228,9.7231,27.8687,28.6194,1.2438,0.0
1741737602.104000,526,14.1452,-2.7174,13.8368,-3.9482,-5.6511,5.8466,0.4995,3.7510,2.5022,-17.2750,2.7547,22.9264,3.7173,29.2001,23.2827,4.6006,0.0
1741737602.108000,527,13.7762,-2.6010,18.5924,-2.8546,-5.4590,2.3988,0.9188,-1.4906,0.7186,-20.7810,5.4312,15.1381,3.3185,28.9013,22.3532,5.8228,0.0
1741737602.112000,528,8.8551,-7.9841,18.1475,-4.1332,-6.6753,-0.7642,0.9655,-4.8933,-0.8242,-21.6024,8.0258,7.8862,-0.7663,28.4942,12.9741,6.8119,0.0
1741737602.116000,529,7.7457,-6.6651,17.7930,-5.2248,-5.5843,-2.7209,0.0467,-10.2086,0.9102,-23.4144,7.6972,2.9384,-3.9874,28.9692,5.6936,5.6056,0.0
1741737602.120000,530,5.4512,-6.9695,16.3395,-6.6726,-6.2545,-6.0427,-1.0273,-14.3584,-2.0078,-21.1469,10.8799,-2.8773,-7.2683,25.2130,-0.0830,7.2717,0.0
1741737602.124000,531,1.4353,-7.2326,13.2820,-6.6812,-5.8443,-8.4170,-2.6362,-20.2259,-4.5232,-21.9396,6.3458,-6.4094,-13.9331,22.2688,-6.8222,9.7280,0.0
1741737602.128000,532,-0.2535,-5.2103,12.9817,-3.8918,-6.0082,-7.7908,-3.8534,-21.1788,-6.6476,-17.0617,9.5281,-8.7430,-20.0792,20.8719,-11.3549,11.8753,0.0
1741737602.132000,533,-0.0082,0.6011,9.6995,-1.7723,-8.3045,-9.7832,-6.9021,-21.4344,-5.7499,-13.1672,12.1054,-16.3269,-24.1379,15.8414,-17.3355,11.4010,0.0
1741737602.136000,534,-0.7673,1.1527,6.2420,-0.7413,-3.2203,-11.5380,-3.8443,-20.9769,-6.3558,-2.7409,14.3267,-20.3856,-24.9764,10.3179,-18.4436,13.8135,0.0
1741737602.140000,535,0.4108,7.5798,3.4255,-0.0266,-2.3762,-16.1479,-2.3697,-17.9788,-6.4877,1.9978,16.2336,-21.8480,-27.2812,2.5140,-23.5234,11.9309,0.0
1741737602.144000,536,-0.4296,9.1729,2.6632,-3.7446,2.4591,-19.1168,-4.1890,-16.3141,-5.0252,5.2350,17.2745,-25.7906,-25.2749,-3.4101,-25.4103,15.4228,0.0
1741737602.148000,537,-5.2545,9.1906,0.5801,0.4099,7.4961,-17.5499,-4.5994,-12.5303,-5.3904,10.1618,20.4201,-23.8929,-24.9081,-10.9700,-25.5957,10.8978,0.0
1741737602.152000,538,-12.5622,9.2441,-2.3559,-0.9647,10.4875,-16.4693,-7.8495,-10.9123,-5.3467,12.7551,22.1006,-26.2955,-20.9210,-21.7970,-26.3140,10.0947,0.0
1741737602.156000,539,-14.4100,8.7228,-5.9182,-2.4663,14.7880,-10.2444,-8.5951,-10.0167,-2.6183,15.1883,25.8608,-22.7290,-18.5965,-28.5828,-20.4022,8.7505,0.0
1741737602.160000,540,-16.2039,7.5660,-10.8211,-2.0730,15.7563,-4.9426,-9.7344,-9.0433,2.1895,16.7699,23.8010,-17.5278,-17.6623,-31.3966,-18.1120,6.1815,0.0
1741737602.164000,541,-18.9888,4.1009,-14.3082,-1.6739,18.0402,-0.9314,-7.7742,-6.6703,0.3461,15.7372,23.6407,-14.5271,-13.2844,-37.5028,-14.6538,3.8322,0.0
1741737602.168000,542,-21.8439,1.9447,-15.6594,1.3745,18.9261,5.0234,-7.7050,-3.9145,2.7529,16.1020,18.2830,-8.0016,-10.1891,-37.0558,-7.2458,2.6375,0.0
1741737602.172000,543,-25.0605,6.2748,-14.0381,4.9248,23.2394,8.7404,-5.8359,-2.7491,-0.4561,11.3516,17.8781,-2.8789,-4.1612,-37.3794,-1.1221,-0.9782,0.0
1741737602.176000,544,-24.5615,6.2233,-12.3689,9.3054,30.2323,13.5207,-3.3015,-1.2798,-1.7136,11.0407,17.0907,-3.5052,1.9958,-31.8958,3.4262,-1.0572,0.0
1741737602.180000,545,-24.4439,4.1524,-11.5838,11.7214,29.6736,18.1341,0.8664,1.7428,0.0296,10.0818,17.0048,-3.3364,9.1564,-29.4636,10.2479,-3.9220,0.0
1741737602.184000,546,-21.8482,3.1221,-10.3009,14.2276,34.1959,23.2983,3.0881,2.6563,-2.2888,4.5947,15.2116,-3.0408,14.2477,-25.1461,13.4838,-6.9218,0.0
1741737602.188000,547,-18.7429,-1.8378,-9.8885,14.7934,31.3205,24.6952,9.2213,6.7305,0.2533,4.3003,13.6191,-5.2250,21.5422,-20.0703,18.7176,-4.6604,0.0
1741737602.192000,548,-17.9764,-1.9209,-11.8972,13.8434,28.5646,29.9715,9.6838,9.3550,2.1078,-0.5545,11.0072,-0.7165,26.1623,-13.9731,19.4823,-5.7016,0.0
1741737602.196000,549,-15.3668,-8.2202,-8.2060,13.2732,22.1802,32.3793,12.4996,11.7075,0.5885,-0.9703,8.0473,0.7896,30.1345,-5.7352,20.3183,-7.3077,0.0
1741737602.200000,550,-12.4687,-5.8706,-11.7238,16.0230,18.3573,34.7307,13.0763,13.7300,3.7128,-3.7918,7.8030,0.1307,34.6388,3.0981,18.5552,-1.4899,0.0
1741737602.204000,551,-5.2433,-2.5959,-11.2422,17.0362,13.0679,36.4745,16.0906,14.1349,4.3400,-2.6551,2.1045,1.1609,32.8418,7.6801,19.8699,-1.0437,0.0
1741737602.208000,552,5.4103,2.3612,-13.4089,17.2399,8.2904,35.6037,19.4501,16.3571,7.4938,0.6589,-0.2781,4.6598,33.1483,14.4869,16.7426,4.5374,0.0
1741737602.212000,553,13.6198,6.3597,-12.8014,18.6949,2.0655,31.5586,20.0398,19.1342,9.6852,4.9131,-5.7117,5.7048,34.8468,19.6518,13.1845,10.3245,0.0
1741737602.216000,554,22.8274,9.9210,-10.7359,17.1189,-1.7143,27.7100,21.6656,21.9396,11.5953,11.0571,-6.5515,7.0579,33.7321,23.6228,11.8387,17.8384,0.0
1741737602.220000,555,31.4638,13.6589,-4.9810,15.5504,-3.7478,27.7897,23.4258,25.8073,13.5606,14.8387,-6.4884,9.6646,30.4200,27.8360,13.2761,21.3571,0.0
1741737602.224000,556,35.4024,16.0747,-4.9410,16.4386,-7.3990,21.6985,21.9181,27.0990,16.6963,21.2983,-7.7792,11.4934,30.3013,28.3332,10.7546,25.5729,0.0
1741737602.228000,557,37.7731,19.5305,-1.4344,15.1804,-11.1509,19.1232,21.2332,24.2710,19.9130,22.5017,-9.4037,12.4419,28.3943,26.2099,9.2795,24.5161,0.0
1741737602.232000,558,40.5240,21.3990,-0.3185,15.5962,-13.3396,11.6859,17.6779,24.1452,21.9285,27.8681,-11.4343,15.7295,26.1421,21.8141,8.1869,29.3477,0.0
1741737602.236000,559,41.3982,22.9464,-1.1122,15.2205,-15.1868,8.5656,17.6540,20.3678,23.2552,27.3928,-13.0301,19.5644,23.1151,18.3315,5.2671,30.4573,0.0
1741737602.240000,560,38.8961,24.8811,1.7630,13.7487,-17.0345,5.9107,12.0936,18.6842,20.3429,26.7015,-19.6433,26.9933,15.4850,14.8306,0.5758,28.2102,0.0
1741737602.244000,561,39.3887,28.0309,4.5308,11.7259,-16.2490,0.4942,10.4659,11.7606,19.9759,26.4626,-22.1251,32.0407,15.2870,11.9755,0.5772,25.8233,0.0
1741737602.248000,562,33.4630,28.7971,11.3865,11.7308,-16.2251,-3.4941,8.3214,5.5795,15.7399,22.0858,-20.3780,34.9314,9.7347,8.3657,2.8340,22.7959,0.0
1741737602.252000,563,33.2626,30.0140,17.2200,15.1483,-13.9313,-7.8399,5.6256,0.9744,7.9753,17.7820,-21.8554,34.8753,7.3044,2.9947,1.4240,17.1243,0.0
1741737602.256000,564,31.2043,32.5064,20.6685,14.6947,-11.7793,-14.5338,6.7107,-3.3817,1.1634,12.7656,-23.5121,36.3755,4.3074,0.5303,5.2834,7.6050,0.0
1741737602.260000,565,27.5971,28.6892,30.0721,12.8157,-9.3052,-22.2530,3.7278,-5.9230,-3.8739,7.4448,-18.1150,35.7939,1.7194,-1.9644,3.7732,-3.6479,0.0
1741737602.264000,566,21.0437,22.9368,33.8389,11.4300,-8.0824,-27.1864,5.1817,-11.8799,-13.6342,-0.3763,-14.7875,30.5644,2.0007,-5.2637,3.7913,-13.9873,0.0
1741737602.268000,567,11.1860,16.1991,38.0576,7.1543,-5.4637,-28.9085,2.5134,-17.5613,-21.3369,-10.4120,-9.7855,27.4468,-2.1300,-7.4079,0.4809,-25.9574,0.0
1741737602.272000,568,6.1780,13.0995,39.1866,2.9925,-4.4253,-31.8644,-1.5928,-20.4624,-25.4050,-19.7614,-4.2719,25.8725,-4.1179,-9.3943,-0.0619,-33.2326,0.0
1741737602.276000,569,-0.6422,4.8411,37.4316,1.1577,-6.6208,-31.8755,-4.9453,-23.8287,-29.2461,-27.2993,0.2684,21.5611,-7.6669,-10.9806,-3.5407,-44.7744,0.0
1741737602.280000,570,-1.8498,-2.5183,38.1261,-5.3637,-7.2332,-29.0448,-6.2323,-28.8612,-35.8989,-35.4553,3.0228,16.8360,-13.3592,-16.4185,-4.8726,-52.6795,0.0
1741737602.284000,571,-4.2855,-4.3479,38.1529,-9.5091,-10.6867,-31.2382,-8.9957,-31.4366,-36.5524,-37.0496,8.1024,13.1865,-17.3479,-15.6420,-8.6947,-54.6430,0.0
1741737602.288000,572,-5.5689,-6.7109,36.1035,-14.1394,-6.6589,-28.6267,-10.5315,-30.7843,-38.3833,-38.2560,12.4867,6.3008,-19.9304,-16.2756,-11.6965,-56.1170,0.0
1741737602.292000,573,-6.0069,-10.1571,36.1822,-14.0708,-6.9235,-25.8635,-17.3669,-29.8981,-37.8763,-38.2304,16.7426,-2.0065,-23.7893,-13.1454,-14.3719,-55.2232,0.0
1741737602.296000,574,-5.4995,-15.0750,33.4636,-15.7245,-2.6235,-21.5966,-18.1116,-29.0609,-31.8936,-34.1089,21.2930,-10.1610,-25.3830,-13.1259,-13.1047,-51.4715,0.0
1741737602.300000,575,-3.0284,-15.5276,26.4382,-15.7304,-2.0446,-16.6147,-20.8536,-27.9506,-29.2678,-30.3265,27.7634,-19.5560,-26.1595,-14.0219,-19.0072,-43.0636,0.0
1741737602.304000,576,-3.5216,-19.6125,22.1941,-21.4281,0.5693,-11.2390,-26.8652,-24.9500,-22.4977,-24.8005,29.6314,-26.5222,-26.2984,-16.8031,-18.1496,-37.5412,0.0
1741737602.308000,577,-5.5873,-20.2473,12.0787,-24.3595,0.0496,-9.2185,-29.6293,-24.6134,-16.6608,-18.6035,30.2380,-27.9363,-30.1881,-18.8662,-23.0632,-28.9367,0.0
1741737602.312000,578,-6.4574,-24.4362,3.1973,-24.6987,2.3740,-1.0141,-32.6823,-23.4391,-7.3262,-11.3068,27.9481,-31.1924,-28.5384,-23.5369,-26.3465,-19.4930,0.0
1741737602.316000,579,-7.0091,-25.4798,-5.0682,-23.8955,6.5541,3.3459,-35.2847,-22.6804,0.0998,-5.4952,26.6036,-25.6224,-27.9705,-25.3012,-26.5262,-4.4926,0.0
1741737602.320000,580,-7.7752,-23.1117,-14.6601,-18.4301,12.4756,7.7363,-37.3683,-20.8398,3.3082,1.9108,22.8189,-25.1637,-24.0351,-26.5720,-24.6234,6.4255,0.0
1741737602.324000,581,-6.3492,-20.9250,-21.1953,-12.3168,12.9635,15.5335,-35.4317,-17.2272,7.3063,11.6559,16.6111,-22.6377,-22.3883,-25.4998,-24.8777,17.0946,0.0
1741737602.328000,582,-4.7163,-21.3707,-27.6297,-7.6842,19.7028,17.6667,-33.2605,-13.9940,9.0370,16.9026,11.0226,-20.3417,-16.6579,-27.3598,-23.9111,27.2329,0.0
1741737602.332000,583,-2.3074,-16.6362,-31.2213,0.0890,24.2606,15.0522,-26.8377,-9.3374,11.1374,24.2239,6.3604,-16.7835,-11.6110,-26.3990,-18.9280,33.2921,0.0
1741737602.336000,584,-6.3842,-16.3283,-33.6033,5.9499,26.4980,14.4723,-18.8901,-3.6698,7.0398,28.5712,-0.9835,-12.3261,-2.4290,-26.3112,-18.2008,36.3100,0.0
1741737602.340000,585,-6.3410,-11.2958,-32.4469,10.0568,29.4483,11.4277,-14.8247,0.3543,7.8913,31.8517,-6.2289,-9.7839,5.0932,-25.1526,-14.0319,40.8509,0.0
1741737602.344000,586,-7.3576,-10.2539,-32.1298,16.3034,27.6803,11.7464,-5.6839,2.4807,0.6623,31.4576,-9.9277,-3.1138,12.4930,-23.2064,-14.2605,38.1514,0.0
1741737602.348000,587,-9.0615,-7.6534,-32.7819,22.5871,26.3090,7.9985,1.2667,7.5142,-2.4111,30.4308,-16.5246,1.5113,18.5580,-22.3389,-10.7008,34.1526,0.0
1741737602.352000,588,-12.8010,-5.1890,-32.5340,23.6984,21.0970,7.1603,9.7285,8.6665,-4.7255,29.4079,-23.5238,3.3985,23.1478,-20.6153,-9.2844,31.6685,0.0
1741737602.356000,589,-9.9731,-4.1687,-29.3224,27.4272,14.7312,6.0155,17.4352,9.1792,-9.4160,26.7992,-30.0291,9.4177,25.5640,-18.6271,-8.2582,25.7909,0.0
1741737602.360000,590,-7.1190,3.1304,-25.2676,31.1668,6.4015,2.8239,25.4985,11.3865,-14.3129,20.4695,-33.3153,14.6694,26.2082,-11.0908,-6.5301,19.7063,0.0
1741737602.364000,591,-7.4054,4.2983,-18.9511,30.2649,-0.5715,0.5901,30.2185,11.4741,-17.4882,15.7699,-36.4126,14.3938,27.2027,-5.8345,-4.7396,12.7152,0.0
1741737602.368000,592,-1.2605,12.7107,-14.6898,30.2031,-9.6711,0.4943,34.4001,14.2774,-18.8741,12.8962,-37.2552,15.9743,24.2339,2.1428,-0.9609,6.1070,0.0
1741737602.372000,593,-1.7615,18.5566,-7.9020,31.4130,-17.9430,-5.0611,36.3964,14.6535,-22.2397,7.9223,-36.5245,12.0713,22.6469,5.9916,1.4237,-0.1223,0.0
1741737602.376000,594,4.3833,20.3552,-3.4392,29.0383,-26.1540,-8.7346,37.3915,12.0058,-18.3106,3.1210,-34.1416,12.4000,15.7642,9.1379,5.0253,-7.2105,0.0
1741737602.380000,595,9.6137,25.5824,3.1430,21.8092,-34.8450,-8.2068,35.8154,10.5344,-15.8741,-2.0118,-31.4324,8.7219,12.1888,12.2151,6.7710,-12.2555,0.0
1741737602.384000,596,12.9814,22.7791,4.8506,15.2391,-43.6369,-9.9697,29.8371,8.9232,-11.4004,-7.8881,-28.1932,6.0756,4.1724,14.2195,10.0186,-17.4026,0.0
1741737602.388000,597,13.5633,21.1646,9.2737,7.6091,-49.8664,-11.2975,20.7543,4.2294,-5.6161,-12.2734,-25.0461,8.4373,-2.5251,14.4869,9.1619,-20.7039,0.0
1741737602.392000,598,14.9928,18.5783,9.0137,1.0049,-55.3470,-8.8451,10.8023,-3.3341,0.9047,-18.7980,-23.6333,8.0914,-10.5244,14.5270,11.3634,-23.6986,0.0
1741737602.396000,599,16.4740,17.9953,10.6411,-2.8304,-55.7170,-6.5331,2.0133,-10.3092,8.8238,-24.1854,-22.2659,8.4247,-16.0073,16.5174,14.8205,-28.0328,0.0
1741737602.400000,600,16.7867,15.0035,12.5152,-5.6515,-57.7463,-6.4709,-9.2221,-13.2613,14.5032,-27.8137,-20.9479,6.9471,-23.8639,15.1336,12.2328,-26.8238,0.0
1741737602.404000,601,16.5518,9.6949,15.1014,-10.6142,-54.2078,-8.9583,-19.4344,-18.7717,15.4114,-32.1452,-17.8838,7.0757,-28.9445,12.6148,13.2682,-27.5664,0.0
1741737602.408000,602,18.7379,6.4109,15.0438,-12.1769,-48.7238,-9.2364,-28.2908,-21.5796,18.5146,-34.0112,-21.0320,4.6262,-35.7270,12.6660,11.8067,-25.8294,0.0
1741737602.412000,603,16.4556,-1.5441,15.7204,-15.0580,-37.1861,-9.6896,-34.9811,-21.4049,21.3059,-36.4692,-17.7392,0.7594,-35.6434,12.5607,10.1163,-27.1080,0.0
1741737602.416000,604,12.4410,-8.8716,17.1851,-17.8066,-29.1313,-11.8552,-42.5280,-23.7913,20.5428,-36.3435,-15.9781,-0.5366,-33.1701,11.7906,8.6425,-27.1626,0.0
1741737602.420000,605,8.1415,-15.8764,15.8799,-19.7878,-18.2851,-13.6608,-45.0082,-23.8730,17.5530,-36.6846,-12.5866,-3.6806,-31.3430,9.4807,7.7994,-25.3958,0.0
1741737602.424000,606,1.5417,-24.8538,14.9351,-25.3739,-9.1997,-19.3228,-45.1689,-22.0973,17.2142,-34.3084,-10.3154,-6.2847,-27.6459,7.9922,2.2365,-23.4992,0.0
1741737602.428000,607,-5.1888,-31.2721,13.3272,-26.6233,-0.8749,-19.2879,-45.9904,-20.2052,13.8653,-35.4263,-12.1124,-7.3757,-23.1192,2.1311,-5.5328,-24.7292,0.0
1741737602.432000,608,-11.4286,-37.0509,8.6229,-26.4627,5.5595,-21.8181,-44.0057,-16.4183,7.9936,-33.3220,-9.9778,-11.1795,-17.6696,0.6056,-10.0453,-20.5630,0.0
1741737602.436000,609,-18.2295,-42.4756,4.3790,-28.5068,11.3826,-21.6829,-40.4163,-14.2971,-0.2582,-27.7970,-10.3707,-13.4850,-14.7963,-1.0982,-15.3348,-17.8504,0.0
1741737602.440000,610,-20.2931,-48.0854,1.9870,-28.8217,17.4924,-25.4504,-34.1494,-8.0465,-8.7764,-23.8194,-5.6747,-12.6780,-11.4903,-0.6137,-17.7936,-15.9376,0.0
1741737602.444000,611,-24.3514,-47.9950,-2.8198,-26.2978,19.7765,-26.0619,-29.0648,-0.7254,-16.8549,-17.3005,-3.9432,-14.4823,-4.2605,0.1812,-20.0353,-10.9029,0.0
1741737602.448000,612,-26.2416,-41.9150,-2.3599,-26.8639,21.3956,-25.1154,-20.2330,6.1760,-22.5536,-6.6897,1.1215,-17.8973,-2.2930,-0.5535,-22.7285,-6.1402,0.0
1741737602.452000,613,-25.7753,-41.7085,-7.2496,-26.7464,24.0963,-26.2272,-9.5182,11.8940,-26.9400,-1.8026,6.8006,-22.8997,4.4901,1.1859,-23.3870,-1.0100,0.0
1741737602.456000,614,-28.9079,-38.5949,-11.1598,-29.4403,22.2352,-26.3564,-1.4878,19.2246,-32.1709,5.6233,10.1385,-23.6393,7.2497,-2.5771,-21.6530,5.4033,0.0
1741737602.460000,615,-29.1112,-33.7284,-15.7561,-31.0002,21.5698,-21.6475,2.7044,22.6378,-32.7719,12.1266,14.7631,-27.5653,10.1560,-4.0404,-21.0243,11.3154,0.0
1741737602.464000,616,-29.6290,-29.1552,-20.7049,-31.7739,15.2614,-16.9573,7.8664,24.8311,-27.9094,14.3610,19.7524,-25.3877,13.1793,-4.1543,-19.6239,15.4693,0.0
1741737602.468000,617,-28.3934,-23.7602,-27.3635,-31.4244,9.3894,-8.0690,9.3768,20.5589,-26.4458,17.5043,19.0056,-25.3500,13.1174,-5.4652,-16.2679,20.8471,0.0
1741737602.472000,618,-23.4745,-17.7143,-32.5607,-32.0116,3.6491,-1.9098,11.7684,20.7702,-20.1812,22.0097,25.4807,-24.1367,6.6205,-7.1411,-9.2008,22.3918,0.0
1741737602.476000,619,-23.7808,-9.6506,-36.9514,-32.5813,-3.1520,6.8195,12.3928,17.7678,-12.9837,21.8489,21.4209,-20.9398,4.7932,-7.8226,-5.4017,29.6176,0.0
1741737602.480000,620,-18.4247,-2.7711,-36.6749,-28.0435,-6.3515,11.9815,12.7287,13.6175,-8.3120,23.0015,20.0594,-18.0012,1.7800,-7.8283,1.8357,31.6963,0.0
1741737602.484000,621,-16.5252,7.4609,-37.7525,-24.9167,-6.3571,16.8632,13.0976,7.1011,-1.1269,19.1982,17.3059,-16.8358,-2.3323,-4.8727,4.4869,33.1559,0.0
1741737602.488000,622,-10.8528,15.0178,-32.9952,-16.5919,-5.1145,18.9552,10.3254,-1.4399,3.8181,14.8211,11.8593,-16.2576,-3.1099,-5.2372,10.4027,29.9395,0.0
1741737602.492000,623,-7.4829,19.7195,-31.6697,-12.2891,-4.9615,21.1691,7.9479,-5.7033,11.4469,12.7810,13.8188,-13.9469,-7.2752,-4.0730,15.0260,27.9857,0.0
1741737602.496000,624,-4.4915,23.2725,-29.0300,-7.2192,-2.6814,25.9639,4.8269,-9.9950,15.8153,5.5206,6.9989,-13.2587,-8.5953,-2.4135,18.7345,22.1393,0.0
1741737602.500000,625,-2.0212,24.5335,-25.7660,-2.9884,-3.6789,28.7433,3.4766,-13.5951,18.9563,2.1636,1.1946,-12.4237,-8.9867,-2.6003,19.7168,14.8753,0.0
1741737602.504000,626,-1.3787,24.2805,-23.7852,3.9066,-0.9707,26.3272,0.2565,-19.1298,24.5928,-4.1851,-4.1824,-8.3329,-11.3294,-2.0968,18.8753,7.1933,0.0
1741737602.508000,627,-0.2248,20.1788,-19.1093,8.2337,-0.2862,24.6937,-3.3160,-25.6927,23.7716,-12.1643,-9.2419,-7.6955,-13.4643,-0.2311,16.1747,2.0968,0.0
1741737602.512000,628,-2.4843,20.0548,-14.1383,16.4844,0.0163,21.1622,-6.0938,-26.1739,23.1304,-15.7454,-16.9380,-4.0362,-13.2314,0.9051,13.7660,-5.7093,0.0
1741737602.516000,629,0.0677,17.4733,-10.2957,19.9230,2.8629,16.7867,-4.9787,-26.1839,20.6072,-19.9189,-19.8402,-2.4427,-10.4813,1.5949,9.8409,-14.3208,0.0
1741737602.520000,630,2.3663,12.3989,-3.5800,27.2065,4.3637,10.1958,-3.5511,-23.2222,17.2905,-20.5945,-23.8141,-2.1920,-8.8750,3.1705,4.9911,-18.7871,0.0
1741737602.524000,631,5.2752,11.5727,2.3362,32.3314,7.5720,7.9239,-1.1480,-17.4027,15.2898,-20.3947,-28.6074,-1.6091,-5.5634,3.9271,0.4284,-24.5214,0.0
1741737602.528000,632,6.7818,7.0685,8.1325,33.7908,10.1027,2.7550,0.8426,-10.6066,11.8734,-17.0978,-23.6680,0.1151,-6.0319,5.8338,-1.9265,-24.0778,0.0
1741737602.532000,633,4.5374,5.9549,14.2834,35.3672,10.2321,-3.4120,6.7362,-4.1606,4.0098,-12.0638,-23.3557,-0.4671,-0.9376,5.1244,-3.9848,-25.8583,0.0
1741737602.536000,634,2.9556,2.1397,14.9877,32.4313,7.0531,-7.1219,7.6762,1.9468,0.3047,-7.2807,-18.2542,-3.6492,3.8687,2.3151,-8.1937,-25.5161,0.0
1741737602.540000,635,0.1884,-0.0403,15.3257,29.0418,6.9676,-9.5083,9.7997,6.7608,-3.1062,-2.6093,-13.0472,-6.3222,4.1705,0.8833,-10.7123,-21.7599,0.0
1741737602.544000,636,-1.5517,-4.8206,15.6250,27.5587,1.4331,-10.9459,11.9908,13.4910,-4.2609,2.7024,-8.9305,-8.1049,7.0520,-1.3218,-14.2542,-17.0868,0.0
1741737602.548000,637,-3.3801,-4.5270,12.9191,21.3766,-2.0034,-6.5884,11.9066,15.1427,-6.3560,8.4270,-5.6897,-6.8399,6.0697,-2.6699,-16.7454,-9.8869,0.0
1741737602.552000,638,-5.2427,-10.7095,8.6324,14.1566,-6.2517,-7.0910,8.8486,21.1501,-6.8830,14.5579,-2.8989,-5.7759,7.6973,-4.2479,-16.7712,-0.4059,0.0
1741737602.556000,639,-8.8014,-6.6975,7.9047,12.2569,-4.7190,-2.9318,9.7888,23.5537,-9.3075,17.9882,3.6687,-5.9678,10.4001,-6.0820,-12.5640,4.9120,0.0
1741737602.560000,640,-9.2822,-4.7869,4.7719,8.4224,-9.1025,3.2069,6.1234,23.1680,-8.1645,22.9088,7.3118,-4.2808,9.6054,-5.4446,-7.0844,14.1249,0.0
1741737602.564000,641,-13.0751,-1.7624,1.3124,6.3013,-9.0413,4.2445,5.5583,22.2811,-10.2358,24.8925,11.5834,-3.6229,10.4053,-5.0521,-3.4900,18.6550,0.0
1741737602.568000,642,-13.4752,-0.9291,-1.8405,2.1615,-8.3999,6.9388,4.6508,20.2115,-7.4370,25.3485,14.0883,-5.2012,10.3219,-2.1466,2.2385,25.1077,0.0
1741737602.572000,643,-11.0799,-3.0435,-2.3200,-2.2631,-9.4556,7.4170,2.3750,14.8373,-9.1282,22.5085,18.2627,-8.4879,10.3066,-6.2973,2.8446,28.2856,0.0
1741737602.576000,644,-13.9415,-2.5268,-5.7704,-8.7525,-6.5058,9.4563,1.2019,12.7689,-5.9460,16.8041,19.0241,-7.9013,10.7494,-4.1102,7.6178,27.1539,0.0
1741737602.580000,645,-13.7021,-7.3792,-7.4283,-13.2859,-4.7905,8.6405,0.4564,7.9302,-5.6418,10.8726,19.0328,-4.3951,12.2572,-5.8295,11.8924,24.8677,0.0
1741737602.584000,646,-14.1520,-6.4133,-9.4095,-19.4055,-0.9313,8.2460,-1.3620,0.8290,-2.9139,4.6014,18.0800,-1.5981,15.5886,-4.2051,13.5595,21.4550,0.0
1741737602.588000,647,-11.5463,-6.6562,-8.3344,-23.1682,1.8114,10.0436,-3.4237,-3.9800,-1.0199,-3.4918,13.1955,-1.5065,14.7190,-4.8026,14.7021,17.2619,0.0
1741737602.592000,648,-10.3645,-6.9569,-9.3715,-24.6453,4.9760,6.6584,-7.0031,-10.0173,-1.1646,-9.1430,9.2626,1.5844,15.9614,-3.5008,12.0309,8.0487,0.0
1741737602.596000,649,-4.9748,-6.5099,-5.1326,-22.1621,8.0323,4.1689,-7.5183,-13.7031,-0.8419,-15.7436,3.3667,4.6681,14.5550,0.1501,12.7878,4.0569,0.0
1741737602.600000,650,-0.0319,-4.4516,-6.7510,-19.5993,9.2704,-0.4207,-5.3056,-14.8597,-0.5898,-16.7063,-2.1823,7.3550,14.6240,4.5016,11.5374,-5.2569,0.0
1741737602.604000,651,2.6628,-5.2457,-1.3747,-17.6981,13.5817,-2.1676,-4.3272,-15.2717,-0.7147,-18.1849,-6.8161,7.0895,14.5551,5.3056,9.0049,-10.2182,0.0
1741737602.608000,652,6.6017,-2.3901,0.0360,-14.9799,14.2736,-9.2307,-3.2855,-14.4239,0.6828,-18.2353,-8.9154,7.4057,12.0283,8.9801,6.3041,-17.8300,0.0
1741737602.612000,653,14.1988,0.3471,8.3014,-12.7976,16.1204,-11.4255,-2.1412,-11.4860,2.2331,-17.5923,-10.0849,9.2492,9.6339,9.9322,0.5574,-22.8791,0.0
1741737602.616000,654,16.5901,1.8191,10.0979,-11.7596,15.0127,-14.8181,-0.4891,-10.4312,3.4066,-15.5175,-13.5744,8.8028,7.2668,10.5055,-4.6444,-28.7073,0.0
1741737602.620000,655,18.8917,0.5238,7.2240,-10.4902,9.0953,-16.1523,-1.4553,-5.9189,7.0323,-14.0267,-15.9857,9.3015,6.4051,5.9786,-7.6486,-27.8752,0.0
1741737602.624000,656,21.5549,7.2323,7.8545,-10.9784,4.4689,-18.6675,-5.7801,-3.3830,9.3139,-8.9946,-16.2090,10.1805,3.7686,3.6000,-13.4619,-28.1022,0.0
1741737602.628000,657,21.2319,4.1434,6.7217,-9.9069,1.9108,-14.8432,-4.3457,-1.3253,10.8199,-2.7823,-18.6293,12.3338,-4.5027,2.6131,-12.2394,-28.9956,0.0
1741737602.632000,658,23.8913,8.1592,6.6763,-3.7799,-4.7107,-13.6493,-8.4325,0.8595,10.4494,3.0648,-17.1440,14.2119,-6.6476,2.4194,-17.5397,-24.1597,0.0
1741737602.636000,659,24.4753,7.8559,2.8556,-2.5296,-8.9306,-10.3279,-6.4397,2.8170,12.9776,7.5114,-13.7846,14.9917,-11.5950,1.3729,-12.6043,-18.4099,0.0
1741737602.640000,660,25.2625,8.1530,1.2296,2.4586,-12.5220,-8.0131,-7.7417,5.3599,12.4085,13.3264,-12.5279,14.6331,-17.1801,-1.6011,-11.8760,-12.9500,0.0
1741737602.644000,661,23.3427,10.2233,3.5381,6.0161,-15.2924,-7.6746,-5.7726,5.7803,11.3331,16.7197,-10.3131,13.5307,-17.8608,-2.7333,-9.2112,-8.7674,0.0
1741737602.648000,662,21.6696,8.3409,2.2291,9.6198,-18.1165,-3.6210,-5.6488,4.2674,6.9951,17.8849,-7.7655,13.0408,-21.0093,-5.5907,-6.7474,-2.5718,0.0
1741737602.652000,663,19.1629,7.1123,4.1607,7.2632,-17.0655,-3.4099,-6.2679,1.4120,4.2866,17.7647,-3.5365,8.7327,-19.4697,-8.2342,-2.3127,2.8191,0.0
1741737602.656000,664,12.2268,2.6224,0.9500,11.4092,-15.8221,3.1445,-8.3470,-2.0489,-0.9552,13.9100,0.7221,7.2975,-18.5294,-11.2221,0.4832,6.4057,0.0
1741737602.660000,665,8.0664,1.5597,1.3313,13.9872,-13.3502,5.2373,-7.5784,-6.6839,-4.0718,11.0335,3.5993,5.7972,-18.8518,-11.7855,2.1399,10.4156,0.0
1741737602.664000,666,2.7986,-5.3804,-0.6404,14.0287,-13.7834,9.7805,-6.8017,-12.4080,-11.3610,4.7346,6.9560,2.5220,-17.3116,-12.7459,5.2798,12.2520,0.0
1741737602.668000,667,-1.8605,-7.0596,3.3291,12.4570,-11.5403,13.0618,-5.7183,-16.9556,-15.8671,-1.3010,7.7142,-2.0324,-16.2772,-10.7902,3.3524,12.2129,0.0
1741737602.672000,668,-7.5499,-9.1016,1.6194,17.1388,-5.3291,11.8793,-3.8448,-21.2687,-21.5309,-4.6918,6.3044,-6.5202,-16.5046,-11.6896,2.3978,10.4554,0.0
1741737602.676000,669,-14.2883,-10.1645,2.2310,16.7661,-1.0018,11.6588,-2.3790,-27.4944,-27.9982,-11.5107,7.6798,-10.3124,-15.2849,-7.2490,0.1547,9.4394,0.0
1741737602.680000,670,-19.2884,-11.1077,4.8002,16.6897,3.9395,7.4966,-1.8713,-27.1524,-33.0419,-16.1363,5.9599,-16.8066,-13.1906,-5.7261,-3.3771,6.2031,0.0
1741737602.684000,671,-20.6280,-11.2194,5.9980,14.7613,8.6081,5.9638,1.9764,-28.1078,-35.0436,-17.2294,5.3784,-21.7746,-9.9047,-2.8359,-6.0153,4.4590,0.0
1741737602.688000,672,-21.3645,-13.2469,7.4532,11.8199,14.8638,2.2089,2.9234,-25.5787,-36.5148,-21.1261,8.0554,-27.2483,-6.9771,-4.3236,-12.1527,3.3400,0.0
1741737602.692000,673,-21.4753,-13.5121,8.0200,9.4536,16.8359,-1.0573,2.2744,-19.7694,-34.9490,-22.7851,7.5665,-31.3521,-6.3221,-5.0495,-17.3493,-0.7855,0.0
1741737602.696000,674,-24.3785,-13.4191,5.1694,4.1139,18.1675,-4.5068,3.3656,-18.3351,-30.6255,-21.1295,8.3565,-34.5063,-1.9082,-6.2318,-21.3380,-3.7320,0.0
1741737602.700000,675,-25.2774,-11.7254,3.3804,0.3494,17.8628,-6.9327,0.8639,-11.3874,-24.6190,-16.3467,9.4013,-34.2203,-0.1603,-7.6088,-21.7668,-7.3196,0.0
1741737602.704000,676,-23.4534,-11.8394,1.2962,-6.0095,16.4711,-8.3780,1.0196,-6.0542,-20.0182,-14.3720,7.2453,-30.3081,-1.7051,-9.6025,-24.7409,-7.3495,0.0
1741737602.708000,677,-22.3689,-8.6079,-3.7044,-6.3454,15.0662,-10.2204,-0.2382,1.3184,-11.3255,-7.5336,2.0328,-29.6479,-0.3263,-10.1343,-25.8472,-5.0411,0.0
1741737602.712000,678,-21.4581,-6.4047,-4.9645,-9.2495,14.3306,-11.0735,-2.9100,7.8437,-4.1462,-3.6300,-1.1260,-24.9318,2.8730,-12.3268,-24.2224,-4.5818,0.0
1741737602.716000,679,-15.6953,-4.5403,-9.4994,-11.6513,9.6828,-10.7803,-2.8193,16.6210,7.3202,6.2667,-2.9120,-19.9024,2.3257,-11.3549,-21.7977,-1.9155,0.0
1741737602.720000,680,-12.1378,-0.7319,-7.1136,-12.7921,6.2962,-8.5477,-6.7662,20.0098,16.2730,14.1346,-4.1542,-12.1875,3.8584,-14.7745,-18.2297,-1.0282,0.0
1741737602.724000,681,-6.6649,1.2144,-10.7004,-12.3968,5.2243,-6.2544,-6.8405,24.1342,27.2922,21.5621,-7.8393,-6.2127,8.1943,-11.6637,-11.0093,0.4324,0.0
1741737602.728000,682,-5.7090,4.2753,-11.7293,-11.4217,1.5633,-5.3266,-6.7574,25.7941,31.4462,26.0939,-8.3881,0.3108,10.3483,-11.1210,-2.7597,3.8602,0.0
1741737602.732000,683,-3.9347,2.1180,-14.9055,-7.4629,-4.3988,1.1735,-6.4158,27.3181,38.1875,27.1614,-11.2833,6.2156,10.2972,-11.9548,3.3917,4.6707,0.0
1741737602.736000,684,-1.9293,4.4794,-14.5441,-3.5205,-8.6621,3.9275,-4.8491,27.9487,42.9923,25.6433,-15.0844,10.3224,12.6296,-8.5542,12.8436,3.7653,0.0
1741737602.740000,685,-1.7397,2.9620,-14.9537,-2.8843,-13.0691,5.6144,-3.7731,24.2628,43.2583,26.0171,-17.6772,16.1258,15.2237,-6.9228,19.8050,5.6573,0.0
1741737602.744000,686,-0.5715,0.8895,-16.4777,2.5433,-15.9056,10.7503,-3.4335,22.4317,42.9725,22.6876,-21.1682,19.0869,17.4044,-0.9681,26.3115,5.3991,0.0
1741737602.748000,687,1.0588,-2.3453,-14.3495,6.3040,-17.9296,11.4579,-1.2114,17.2614,41.5362,16.8507,-25.0236,22.2113,19.4813,3.6243,31.1459,3.7563,0.0
1741737602.752000,688,4.7455,-0.2141,-15.8088,8.3621,-19.5595,14.4423,-0.0684,15.5964,34.7553,11.0234,-27.5429,25.4590,20.3522,10.4584,35.7652,3.9679,0.0
1741737602.756000,689,5.9763,-1.4841,-11.3387,11.8224,-22.6892,18.0279,4.8673,11.0769,30.2274,6.0756,-26.2218,27.8721,19.2223,17.4312,38.6771,4.0865,0.0
1741737602.760000,690,7.6216,-3.9296,-9.3057,14.5205,-23.1780,17.5067,4.8072,4.6085,18.9795,-4.0007,-23.8003,25.7171,18.7939,23.6870,40.9713,1.6108,0.0
1741737602.764000,691,8.1803,-3.5330,-6.5898,16.6695,-21.4109,15.7166,10.5807,1.2569,9.6276,-9.7959,-20.4269,21.2865,16.2314,27.7312,39.2699,0.4553,0.0
1741737602.768000,692,8.1113,-8.3295,-3.7671,15.8884,-22.1647,12.8301,12.3347,-3.9464,0.1489,-18.0792,-18.7590,16.7357,12.9812,31.2693,34.6943,-3.0467,0.0
1741737602.772000,693,10.7675,-8.1507,-2.9266,10.0179,-20.7525,7.1529,15.3965,-4.4929,-9.4429,-22.9983,-15.1470,10.1981,10.1654,34.2705,28.5540,-4.7994,0.0
1741737602.776000,694,11.8479,-5.5580,-0.6794,6.6689,-16.0429,3.9640,14.5212,-6.9578,-18.5614,-31.8359,-11.8897,6.0316,8.3508,35.2742,23.7610,-7.4977,0.0
1741737602.780000,695,11.4071,-6.6228,0.9730,1.9195,-13.3042,-1.8918,13.9075,-10.2153,-24.8170,-33.0390,-7.9612,2.7037,1.7166,34.3911,13.8744,-9.9803,0.0
1741737602.784000,696,12.2248,-9.5914,1.9489,-4.4766,-12.3335,-7.3815,11.7837,-9.8616,-29.3217,-37.1752,-5.1416,-0.7154,-4.1173,33.4669,4.2351,-9.9634,0.0
1741737602.788000,697,12.8701,-6.1762,4.7559,-9.6278,-9.4048,-10.6687,9.9535,-9.6481,-34.3602,-33.5691,-1.4304,-3.2322,-10.4469,27.6096,-3.7725,-9.4495,0.0
1741737602.792000,698,14.1774,-5.0036,6.4860,-14.1891,-7.4871,-14.3201,4.2303,-11.2113,-34.1704,-31.7756,6.0431,-8.6296,-15.6335,24.5911,-12.0085,-8.5845,0.0
1741737602.796000,699,11.7934,-4.0861,3.0376,-18.8042,-3.9308,-16.5534,-0.1750,-9.7986,-37.2246,-25.4802,9.4656,-13.2695,-20.4580,19.4401,-15.7758,-5.7593,0.0
1741737602.800000,700,11.2434,-1.2983,5.1922,-20.8817,-0.0685,-18.3505,-2.9735,-10.1597,-30.5445,-20.0902,13.4698,-14.9783,-23.3114,12.8892,-24.0037,-4.4062,0.0
1741737602.804000,701,9.3951,-1.0738,5.6472,-23.9121,2.4675,-23.0774,-9.5973,-9.3832,-26.2193,-14.4454,16.8887,-16.1117,-27.0302,4.0497,-28.2618,-2.8493,0.0
1741737602.808000,702,7.7577,0.5520,5.0048,-26.3408,8.0642,-23.2091,-12.5389,-5.5224,-19.8998,-7.1749,18.7711,-19.9035,-29.4905,-3.8429,-27.7922,-2.2864,0.0
1741737602.812000,703,7.4694,1.2592,5.2404,-30.2357,11.6400,-23.8949,-17.9493,-5.0114,-13.5300,-2.3966,22.8445,-18.7949,-30.1395,-9.8130,-28.7388,-1.4917,0.0
1741737602.816000,704,2.6461,1.8551,7.4309,-29.7840,12.6012,-22.3667,-22.7973,-5.9626,-7.1019,4.4650,23.4172,-18.3160,-25.9881,-19.7941,-28.7630,2.4311,0.0
1741737602.820000,705,-2.6525,-0.3824,2.4371,-29.2718,13.6372,-16.9238,-24.1662,-5.5371,0.1177,9.7244,22.8434,-18.3154,-22.6989,-24.2347,-24.3614,1.5323,0.0
1741737602.824000,706,-6.4253,-2.2825,0.1723,-27.6859,18.5751,-12.0798,-25.2936,-5.1017,6.7180,13.2899,22.6251,-17.7380,-19.3457,-30.9776,-21.9579,-0.1325,0.0
1741737602.828000,707,-13.7147,-3.6428,-0.1939,-22.8883,17.6744,-8.4542,-25.0773,-4.7044,11.6659,15.9599,20.8996,-13.8203,-15.1941,-34.3191,-15.4776,0.4621,0.0
1741737602.832000,708,-18.3540,-4.8669,-0.7896,-21.3310,19.3334,-3.2605,-26.2041,-4.5244,15.3026,16.8240,18.4926,-18.0503,-11.0667,-33.9473,-12.5095,1.0361,0.0
1741737602.836000,709,-22.4691,-8.2995,-1.6846,-13.5836,18.6674,2.2402,-17.5243,-2.1922,16.6728,17.7496,17.2671,-16.0204,-2.5987,-32.2741,-5.5548,0.0084,0.0
1741737602.840000,710,-27.5126,-6.1415,0.3629,-7.3223,17.5854,7.6810,-13.8787,-1.6129,16.1770,16.3496,19.2957,-13.1436,1.1998,-27.8699,-1.6389,-1.8771,0.0
1741737602.844000,711,-28.5866,-6.8784,-2.4087,-3.5404,18.7923,12.0203,-9.4133,-1.1954,16.6877,16.3531,16.4045,-12.0607,10.0392,-25.3083,4.8851,-1.7443,0.0
1741737602.848000,712,-27.5479,-7.1509,-2.9260,2.1337,18.3963,14.6402,-2.5345,3.0058,15.8718,16.0499,12.2827,-14.1982,13.5946,-23.4576,10.3676,-0.1601,0.0
1741737602.852000,713,-32.0126,-5.9436,-3.0063,6.8138,18.3839,18.5400,3.7067,5.1224,14.3425,13.5677,12.1758,-14.1127,20.0467,-17.7057,13.5039,0.7418,0.0
1741737602.856000,714,-28.8853,-8.3376,-3.7273,11.1671,17.2083,23.7442,11.5200,4.3102,13.1972,10.0540,11.1765,-14.1453,24.7328,-12.5644,15.0611,1.2511,0.0
1741737602.860000,715,-31.7713,-6.8826,-6.5294,15.0895,13.1459,24.9255,14.8948,6.5493,8.5549,8.4961,12.0104,-14.3289,28.2890,-3.6417,16.9092,5.4210,0.0
1741737602.864000,716,-27.8710,-6.1819,-6.6779,17.1147,10.6151,26.0867,19.1347,8.0137,7.5976,5.0058,7.1919,-9.7587,29.1858,1.8544,15.4460,4.3670,0.0
1741737602.868000,717,-22.9336,-1.8546,-9.7231,21.7543,10.0750,28.7076,24.8622,8.0803,4.5747,2.9614,5.5239,-9.9828,27.3721,9.1728,17.8269,8.0224,0.0
1741737602.872000,718,-18.5211,1.0810,-11.9380,24.4996,8.1496,25.9445,25.5448,11.1280,-0.2720,2.1716,1.7895,-6.7957,28.5754,11.7741,15.6378,11.5602,0.0
1741737602.876000,719,-14.7396,6.0814,-12.7107,27.5420,3.6230,22.3718,28.2239,9.0103,1.4942,2.0851,-0.0448,-1.4660,25.4570,16.6749,12.6603,16.4172,0.0
1741737602.880000,720,-4.8835,6.0659,-12.8503,27.6883,4.8753,22.7509,26.8397,10.9111,1.4555,2.8520,-3.9326,3.0020,19.7667,18.4367,12.6254,20.7035,0.0
1741737602.884000,721,3.8922,10.0987,-9.1827,26.7339,5.9077,21.4090,25.0866,11.8023,-0.6737,3.1403,-7.4956,5.7602,17.0167,21.8377,13.6528,23.1723,0.0
1741737602.888000,722,10.0444,13.2243,-10.0492,28.4329,3.4360,16.7952,24.9040,14.5131,-1.6232,2.7028,-8.8672,11.2379,14.3312,22.4719,13.1701,25.2479,0.0
1741737602.892000,723,15.6687,13.3013,-9.1916,24.1277,-0.0389,13.2811,22.3632,12.4082,-0.0021,5.0489,-10.3168,16.4631,12.4453,23.2200,13.0657,24.6264,0.0
1741737602.896000,724,21.0066,15.0938,-7.2629,25.6067,-1.8154,9.3962,19.6555,11.0254,1.8584,4.1085,-13.8677,18.1704,7.4674,19.0315,11.9803,21.9913,0.0
1741737602.900000,725,24.3003,17.1936,-8.1847,20.9743,-6.0538,6.1026,15.4676,10.1157,1.4479,3.1109,-17.5340,21.3008,3.3483,16.4801,12.4453,21.2461,0.0
1741737602.904000,726,26.1776,16.8583,-2.2054,20.7696,-6.1203,2.0116,12.2810,9.2185,4.1666,2.1104,-22.5224,23.8687,2.8712,14.0851,7.3840,20.0545,0.0
1741737602.908000,727,27.8159,15.2804,-1.2179,17.5957,-8.9737,1.7152,8.4891,8.8692,5.6788,5.5187,-22.0597,26.5228,2.3434,15.2397,7.2247,16.2459,0.0
1741737602.912000,728,28.2449,16.9279,1.8904,18.1231,-8.0989,0.5814,2.3146,5.9887,5.5167,3.2683,-21.1506,27.5201,-1.0077,15.8076,3.3713,8.3793,0.0
1741737602.916000,729,29.0814,16.9642,7.8698,15.5682,-9.5706,-1.0285,-0.9273,4.2143,6.6746,3.6403,-21.3737,28.2101,-1.5547,10.2795,4.1239,2.6570,0.0
1741737602.920000,730,28.3497,15.8812,11.7549,10.6050,-14.3079,-3.6023,-3.2347,3.7730,5.3887,1.6899,-21.2576,24.8474,-4.6144,9.6483,4.6528,-3.1227,0.0
1741737602.924000,731,26.1430,14.4531,17.0338,10.1954,-15.7152,-3.9242,-4.3919,0.8482,4.7023,3.3385,-17.6832,24.2810,-3.6892,11.0655,4.3703,-9.0642,0.0
1741737602.928000,732,24.6099,11.6371,18.3034,7.4924,-13.6601,-6.4276,-6.6228,5.6680,3.7421,0.4666,-14.2211,17.9394,-5.9409,9.8559,2.8634,-17.7060,0.0
1741737602.932000,733,19.2712,12.0581,20.3813,3.4954,-15.4146,-7.4223,-5.6105,1.5672,4.7978,-0.9557,-9.2825,11.6313,-4.6307,6.3420,1.3064,-21.6281,0.0
1741737602.936000,734,13.9494,5.9241,22.2076,0.0788,-16.0670,-9.6481,-5.1495,0.1783,0.6678,-4.1664,-4.1188,6.6788,-4.1420,7.0463,1.3883,-26.1386,0.0
1741737602.940000,735,10.5241,3.6324,21.7862,-1.8458,-13.3083,-7.3230,-7.8511,0.0109,1.4429,-5.3525,1.8886,-0.5731,-5.9331,5.5086,0.3330,-29.3218,0.0
1741737602.944000,736,4.3346,-0.1676,19.8608,-7.7158,-12.2730,-8.6983,-8.3792,-1.4463,0.0777,-4.1394,9.1332,-5.2173,-7.3063,4.7412,-1.5515,-32.2590,0.0
1741737602.948000,737,2.1108,-4.3749,18.5790,-10.2478,-10.3073,-10.8803,-8.6796,-4.4206,-0.4515,-6.7474,13.2383,-8.0829,-6.2131,3.9805,-1.5707,-32.4469,0.0
1741737602.952000,738,-2.7262,-7.6522,16.3713,-17.1001,-8.5483,-9.2823,-7.9335,-3.9079,-1.4761,-6.0822,19.6417,-10.0909,-5.8756,3.8647,-3.7450,-28.6896,0.0
1741737602.956000,739,-3.9174,-10.5098,14.3117,-20.5484,-3.9355,-9.5879,-6.4001,-6.2945,-3.8161,-4.8366,23.9123,-14.1662,-6.4360,5.1439,-3.1579,-23.9984,0.0
1741737602.960000,740,-5.6069,-14.2901,11.4412,-19.0302,0.0969,-11.0939,-7.3439,-5.0518,-7.5018,-8.1110,27.3185,-18.0790,-5.2597,1.4956,-2.6542,-19.1005,0.0
1741737602.964000,741,-8.1925,-17.3928,7.8213,-21.1316,8.0200,-6.7844,-4.0508,-6.1543,-4.3243,-8.4067,30.8417,-20.5298,-2.8420,-0.5209,-3.4290,-13.2236,0.0
1741737602.968000,742,-10.0944,-18.5915,4.3096,-21.8022,13.3951,-5.1941,-4.3820,-6.5013,-7.7640,-7.1054,32.3585,-21.6168,-1.9835,-2.6784,-2.2293,-7.4043,0.0
1741737602.972000,743,-8.8243,-21.8455,0.5759,-23.9953,19.8489,-5.6675,-3.9258,-6.0091,-8.0876,-7.7907,33.6420,-21.1236,-2.5335,-5.1291,-2.1798,-1.3349,0.0
1741737602.976000,744,-10.4235,-20.4413,-2.5670,-24.2895,24.5112,-4.4836,-2.8123,-7.2894,-6.2899,-6.3766,32.8215,-22.2139,2.6281,-8.5646,-0.1889,6.4231,0.0
1741737602.980000,745,-11.2891,-20.4009,-6.0420,-22.7803,26.8153,-2.2516,-1.7815,-4.9906,-4.5788,-5.0305,30.8273,-17.5378,3.2850,-7.7824,-1.4026,13.9427,0.0
1741737602.984000,746,-12.8458,-19.1468,-10.0357,-21.5990,30.8638,0.3058,-2.4517,-5.5398,-4.0778,-6.6330,26.1924,-12.5710,5.2933,-10.3249,-4.7011,22.6292,0.0
1741737602.988000,747,-9.8908,-16.5374,-12.9864,-19.7020,30.5139,2.8211,-1.1350,-5.3974,-2.9793,-6.3127,19.8617,-11.1085,6.3969,-9.9550,-5.0421,26.9253,0.0
1741737602.992000,748,-11.3097,-11.6222,-14.9427,-12.5907,31.2214,5.6248,-1.1810,-5.1178,-2.0903,-2.9368,13.2570,-6.8220,8.6998,-10.4560,-4.3384,29.6604,0.0
1741737602.996000,749,-9.4653,-13.0934,-19.7415,-10.4818,29.9839,8.6574,0.3323,0.8425,0.0688,0.4726,8.0145,-2.6983,8.8913,-9.2794,-0.3781,32.6043,0.0
1741737603.000000,750,-10.2376,-5.3709,-16.7702,-8.5622,27.9835,8.6759,0.0052,6.4078,1.4626,2.2882,1.0594,1.3124,6.8183,-8.4885,0.9689,36.0672,0.0
1741737603.004000,751,-7.7812,-1.0066,-18.0739,-4.4338,24.1508,12.6647,3.3780,12.1040,3.8036,3.9207,0.3274,5.5509,9.4583,-4.6131,3.4015,33.2399,0.0
1741737603.008000,752,-2.4789,6.9507,-15.6360,0.9405,20.7434,14.6488,5.3723,13.3791,5.0742,6.5697,-3.4680,10.3521,13.4005,-0.7724,7.3123,31.2217,0.0
1741737603.012000,753,-2.2562,11.5279,-13.4026,3.0988,13.7031,14.8942,5.2238,19.8880,5.8264,10.9184,-6.7374,14.0455,14.3403,0.2812,8.1988,26.4657,0.0
1741737603.016000,754,0.7216,14.0358,-11.8501,6.2912,7.5167,16.7078,8.3005,23.3935,9.3974,12.8358,-10.4679,14.7638,15.0253,3.1327,11.2637,22.8483,0.0
1741737603.020000,755,2.4412,17.4389,-8.9563,11.7408,1.1883,19.2211,8.9453,26.5498,13.6363,16.2155,-12.8723,16.0427,15.0278,4.0639,15.8944,18.8773,0.0
1741737603.024000,756,5.1258,20.6194,-5.4747,14.6400,-4.9374,19.3569,8.9362,26.6902,15.8251,19.8366,-11.7946,18.0710,16.2101,9.7037,17.2166,13.0671,0.0
1741737603.028000,757,6.2717,22.8430,-1.3594,17.7597,-10.0392,21.2260,9.0413,28.8253,17.8001,19.1308,-12.1348,21.2213,14.5924,13.0953,18.1098,8.4309,0.0
1741737603.032000,758,8.5227,24.2787,3.2835,25.2901,-15.2244,24.6427,11.3285,28.5724,17.2224,23.6550,-10.5836,19.9549,14.1954,14.5291,22.0943,3.7038,0.0
1741737603.036000,759,10.5600,29.4171,9.5769,28.0372,-18.9696,26.2591,12.4144,26.3141,20.1141,23.3719,-8.4084,20.5781,13.1570,18.9830,23.5491,-0.9031,0.0
1741737603.040000,760,13.7752,30.8068,13.6217,32.8494,-18.9921,21.8873,15.8528,22.2170,21.1114,23.0589,-6.4452,19.4869,10.9901,20.3481,22.6242,-4.5278,0.0
1741737603.044000,761,15.1481,30.6148,17.3826,34.5902,-20.0690,21.8687,19.4106,18.1731,20.9402,21.6970,-7.0201,18.7125,8.6258,24.9818,23.4693,-8.6652,0.0
1741737603.048000,762,12.4613,27.9155,20.8623,37.4630,-14.2122,16.9784,17.7086,11.5344,18.2899,18.7464,-3.8925,13.2959,8.1340,22.4846,23.3724,-10.0610,0.0
1741737603.052000,763,12.4857,25.8000,23.9667,35.7329,-13.9697,14.6853,17.7578,5.3056,13.7488,14.0438,0.4259,10.4168,6.1878,22.7821,22.9778,-11.8137,0.0
1741737603.056000,764,10.7083,23.8719,25.8257,36.9521,-10.2178,12.5912,17.7481,-0.7673,11.9427,7.9847,2.8925,4.8993,4.2950,18.4672,20.3198,-10.0939,0.0
1741737603.060000,765,10.2478,18.7231,27.8432,32.4515,-6.9554,11.9217,16.5502,-4.7736,10.3343,5.0508,4.2712,3.8352,3.3181,17.0416,14.3159,-13.0820,0.0
1741737603.064000,766,9.3689,15.1387,26.5140,30.3525,-3.8218,6.9836,15.3977,-9.4526,5.3384,-4.2239,5.2302,-0.2473,-1.4078,13.3890,9.4907,-14.6433,0.0
1741737603.068000,767,6.9912,9.8282,24.4379,28.5696,-1.0553,4.4238,14.7881,-15.6032,-0.0253,-7.2430,8.9651,0.3815,-5.9763,8.5065,1.3964,-13.6171,0.0
1741737603.072000,768,7.4394,7.4967,22.5120,24.1778,3.7499,-2.9049,10.4891,-17.7934,-8.9699,-12.3630,9.5930,-4.9689,-5.5009,4.4473,-1.1015,-10.8281,0.0
1741737603.076000,769,3.7703,0.0526,20.8474,19.3368,7.3212,-5.6512,9.4762,-21.5480,-14.4666,-19.7567,9.9108,-2.2526,-8.8288,0.0053,-5.8953,-8.2146,0.0
1741737603.080000,770,7.3697,-2.1496,17.4668,15.6515,11.7821,-11.0367,5.3339,-18.0135,-20.1927,-21.5252,13.9161,-5.8700,-9.4362,-4.1933,-11.7655,-7.9790,0.0
1741737603.084000,771,4.5218,-7.4245,15.1165,8.7918,16.0481,-11.3544,3.7056,-18.2836,-22.3743,-24.6410,15.7028,-7.3103,-12.0349,-10.4333,-16.6161,-4.6594,0.0
1741737603.088000,772,6.0849,-10.6679,10.5405,2.2908,16.6997,-15.2929,2.8451,-15.1635,-25.9324,-25.5488,17.7875,-9.8348,-9.4122,-12.5501,-16.5264,-3.8327,0.0
1741737603.092000,773,5.8959,-15.7724,10.5077,-4.3343,18.4684,-17.7093,-0.0879,-10.0831,-27.1163,-21.3861,17.4942,-7.9895,-9.2634,-20.3613,-20.7339,-1.2619,0.0
1741737603.096000,774,5.8010,-18.5647,3.7237,-10.1318,15.1509,-16.7425,-4.1161,-5.0638,-28.3401,-19.2789,17.6286,-8.5759,-7.6081,-22.7495,-23.2436,1.5813,0.0
1741737603.100000,775,3.5946,-22.4804,-1.8334,-16.0952,17.2813,-12.3624,-5.7170,-1.7729,-26.0009,-14.5646,18.2654,-6.0249,-6.4775,-24.2901,-21.7588,3.9112,0.0
1741737603.104000,776,2.5985,-24.4835,-5.6371,-21.1795,18.1519,-9.8514,-9.4048,0.6726,-23.2978,-9.2770,15.6644,-5.7268,-4.9598,-26.2731,-22.7059,7.0967,0.0
1741737603.108000,777,0.6088,-22.8572,-11.1716,-22.1038,14.4843,-7.0081,-12.4142,3.6680,-18.8073,-4.4026,15.1588,-3.8343,0.0013,-27.6565,-18.2350,10.2101,0.0
1741737603.112000,778,1.3661,-20.2582,-16.7962,-22.7877,15.1884,-0.9882,-11.1524,7.3173,-11.5169,5.4914,13.0434,-1.5826,1.8385,-25.8745,-13.4169,11.4381,0.0
1741737603.116000,779,2.0231,-14.8807,-16.4772,-25.1615,12.1238,0.6519,-11.6865,13.6739,-5.5412,12.0617,14.8231,-0.9486,4.2384,-22.7933,-8.0280,15.6869,0.0
