timestamp,package_num,Fp1,Fp2,F3,F4,C3,C4,P3,P4,O1,O2,F7,F8,T3,T4,Pz,Oz,marker
1741737600.000000,0,-2.7282,3.1571,1.0640,-12.0675,-4.7180,-2.7574,-5.8189,-5.3995,0.2655,0.0683,-2.0585,-4.6390,-2.6336,6.3794,-2.9035,-0.0449,0.0
1741737600.004000,1,-1.3921,2.8953,0.8192,-10.9459,-2.3431,0.3922,-8.2780,-3.1840,0.9361,3.5585,-2.9918,-3.8414,-5.6699,6.2568,-3.0824,2.6142,0.0
1741737600.008000,2,2.3516,0.0873,-2.7436,-6.1643,-7.3209,-1.0864,-9.0886,-3.5282,-1.4175,5.1681,-1.7869,-4.4853,-5.2169,10.2521,-4.7244,6.1076,0.0
1741737600.012000,3,2.1896,-1.4282,-2.6236,-1.1304,-6.7159,-0.2957,-9.4110,-2.1289,-0.9489,6.3259,-2.0036,-6.5452,-2.5664,5.8789,-3.0093,5.3189,0.0
1741737600.016000,4,-0.3124,-3.0712,-0.5035,1.2335,-5.2859,-2.6229,-10.5274,0.6338,-6.0285,3.6508,-1.4990,-4.8421,-1.6586,2.5107,-4.4987,4.3806,0.0
1741737600.020000,5,-2.0409,-6.3708,1.9409,-0.2389,-2.3754,-3.7772,-7.6884,4.9718,-7.2600,3.9607,-0.1032,-6.0744,-1.5402,-2.0405,-2.4557,3.1919,0.0
1741737600.024000,6,-3.3076,-9.4257,4.5965,-0.8005,-2.7744,-7.5222,-2.6801,3.6035,-6.9305,-0.2640,1.4252,-4.1284,-0.4197,-0.8071,-5.3227,2.0563,0.0
1741737600.028000,7,-6.0575,-7.1471,5.1930,-0.6847,-3.2115,-9.0442,0.4677,7.1154,-6.4845,-3.6174,-0.8613,-2.4843,-1.9216,0.8227,-5.5601,4.7922,0.0
1741737600.032000,8,-5.8401,-3.9550,6.5572,-2.3981,-3.2657,-8.8727,1.7518,5.6445,-7.8882,-5.7288,0.8798,-4.3528,-0.0144,1.8273,-4.2790,2.3916,0.0
1741737600.036000,9,-5.1445,-3.0314,4.6706,-4.5259,-4.4915,-6.5206,0.2125,1.2197,-7.3077,-5.3306,-3.1969,-0.7477,-2.3049,-1.1745,-4.5108,2.9925,0.0
1741737600.040000,10,-0.8866,-0.4715,5.5345,-7.6032,-4.8540,-4.7030,-2.0381,1.6018,-4.8655,-10.9279,-9.5152,-2.2807,-1.3209,-1.0080,-2.0451,-0.1645,0.0
1741737600.044000,11,5.5909,-0.1524,2.7074,-7.6605,-5.7075,-1.3536,-2.3216,2.0458,-4.1654,-8.8704,-6.7320,-2.0476,-1.1836,1.4051,-0.8385,-1.0562,0.0
1741737600.048000,12,8.9223,-5.3692,-4.6707,-3.7688,-5.2375,-3.8172,-4.6581,-1.4577,-2.9187,-10.6856,-6.5579,-5.4165,-0.4834,0.3884,-0.4896,-6.0147,0.0
1741737600.052000,13,7.7125,-4.2126,-0.6996,-1.0949,-5.3615,-3.4387,-4.1874,-1.6247,-2.5920,-10.4327,-3.5571,-8.7015,-1.5014,1.9145,1.6089,-7.5316,0.0
1741737600.056000,14,6.5186,-2.1444,3.6522,-1.0867,-2.7430,-7.2037,-7.3167,-3.6218,-3.7672,-12.0443,0.6391,-6.8425,-0.2842,3.3950,0.2003,-13.9623,0.0
1741737600.060000,15,2.0364,1.6321,5.6857,-5.4379,-1.5355,-6.1466,-8.8283,-3.2408,-1.3203,-10.5679,4.6460,-6.1896,0.7113,4.1989,-2.1701,-13.3706,0.0
1741737600.064000,16,2.6635,2.5618,1.7401,-6.1694,-1.3949,-3.7493,-7.5359,-2.5401,-3.4086,-11.7603,1.7951,-1.9215,-0.2077,6.3282,-5.4406,-12.2413,0.0
1741737600.068000,17,6.8949,4.2207,-0.9257,-4.3785,-4.5076,-1.1253,-5.0565,-4.7516,-1.1053,-8.6503,-0.4791,-1.8176,-4.3732,10.5247,-8.3805,-9.0069,0.0
1741737600.072000,18,7.5368,6.6816,-4.9264,0.3636,-5.4257,-0.8149,-6.6519,-5.7663,-0.2943,-4.8749,-4.9158,-0.4183,-4.7996,8.1668,-12.4513,-10.0256,0.0
1741737600.076000,19,6.5977,1.7020,-9.5667,5.5668,-5.8969,-0.0820,-6.4088,-4.9010,1.2449,-2.0199,-2.6900,-2.8096,-5.7193,4.8401,-10.9720,-6.4903,0.0
1741737600.080000,20,0.7612,-1.0237,-11.2180,9.9229,-3.4065,1.0032,-5.4148,-1.4242,-1.1270,1.3769,-1.8914,-3.4937,-1.5527,-3.1264,-12.1519,-1.5752,0.0
1741737600.084000,21,-3.0661,-7.2792,-8.5471,12.5509,-2.3711,0.1451,-6.3662,0.8934,-6.8740,3.3953,-1.7652,-5.4396,-0.6408,-8.3289,-10.4002,1.1937,0.0
1741737600.088000,22,-1.6822,-11.2919,-6.5856,10.6975,-1.0838,-1.4282,-0.6888,1.3341,-10.9662,6.7553,-3.5286,-9.2165,-2.0763,-10.0355,-9.6042,2.7789,0.0
1741737600.092000,23,-2.8920,-12.5259,-1.9851,9.1173,-1.5969,-2.3805,0.7613,4.2164,-17.2199,3.3604,-2.9207,-13.3804,-3.1951,-12.3490,-10.5328,4.2802,0.0
1741737600.096000,24,-6.6932,-7.9014,4.5412,8.4115,-2.2503,-7.5842,8.0705,-0.7211,-15.0613,1.3029,-3.9551,-14.9324,-6.0676,-10.8454,-13.7058,8.1394,0.0
1741737600.100000,25,-6.3971,-4.4134,7.3335,3.6426,-0.7217,-6.8197,10.9973,-1.4694,-17.8286,-5.3061,-6.6624,-11.3777,-6.0391,-6.3364,-10.5583,11.4135,0.0
1741737600.104000,26,-5.6482,-0.5559,11.5054,-4.5748,-1.9187,-5.0804,12.7065,-3.5213,-14.7430,-5.7210,-8.6391,-4.1345,-4.0357,0.0499,-5.4666,11.7756,0.0
1741737600.108000,27,-0.9421,4.4808,8.1656,-5.8862,-4.1174,-1.6293,11.7137,-3.0442,-12.3867,-7.3717,-8.7221,2.1392,-4.8685,2.6287,-0.9773,12.8271,0.0
1741737600.112000,28,2.4747,9.8157,-0.6158,-5.8751,-7.0640,0.8288,9.3595,-5.5289,-5.3653,-6.2505,-7.6808,4.5205,-4.4965,3.0629,4.9785,9.2840,0.0
1741737600.116000,29,1.3870,5.1230,-8.6967,0.7584,-4.5619,-0.0526,3.4077,-4.1839,-0.1401,-2.5146,-8.4695,3.3331,-3.7566,4.2874,7.9259,4.5686,0.0
1741737600.120000,30,0.3224,0.4014,-11.3657,1.0491,-3.1962,2.1211,0.2673,-6.9834,1.3101,-0.4920,-4.5432,-0.9420,-2.1899,2.4000,11.5276,2.1992,0.0
1741737600.124000,31,0.3953,-5.9110,-13.5862,0.4002,-2.8052,2.2980,-1.9217,-3.9035,5.8961,-1.2086,-2.9255,-6.1321,-0.5649,1.5363,13.3309,-3.7018,0.0
1741737600.128000,32,-0.0771,-11.0027,-11.0288,-1.1204,1.6923,3.5004,-1.4313,-6.0739,5.0461,0.1007,0.1762,-8.8506,-0.1895,0.2107,12.1627,-5.9094,0.0
1741737600.132000,33,1.2004,-14.0647,-9.7628,-5.4518,1.6826,7.3461,-4.3348,-7.3421,7.2799,4.8833,-0.5373,-11.4707,-0.6708,-3.6116,9.7923,-12.9288,0.0
1741737600.136000,34,1.7048,-12.2437,-7.7116,-6.2861,-0.1194,9.9000,-1.4068,-7.8785,7.1033,5.9285,-0.5189,-15.3051,-1.7392,0.7773,7.2909,-14.3228,0.0
1741737600.140000,35,4.0751,-7.5840,-2.7926,-12.3347,1.6271,13.4560,-3.4072,-8.0547,7.1002,6.3436,-0.3772,-14.9673,-0.3055,1.3577,0.8585,-16.7670,0.0
1741737600.144000,36,4.9698,-7.4328,1.5779,-16.7560,-0.5669,16.1534,-6.7166,-6.4214,6.3627,0.1645,2.9245,-9.4662,-1.7255,6.7963,-3.0230,-16.1523,0.0
1741737600.148000,37,5.8989,-5.4459,5.7121,-19.1440,-5.2633,14.8256,-8.4057,0.9798,6.8179,2.8656,4.7549,-2.1731,2.9787,9.7583,-3.6949,-14.9464,0.0
1741737600.152000,38,5.1991,-0.8949,1.2166,-17.9203,-7.4429,11.7102,-13.7605,6.5566,6.8537,0.7068,7.5074,7.3544,1.0377,8.4434,-0.7425,-13.4959,0.0
1741737600.156000,39,0.3658,-2.2317,-2.2500,-8.3115,-8.3017,7.7558,-20.0802,9.9173,3.3702,3.4413,7.5247,10.1229,2.8267,3.1071,-0.8344,-12.2001,0.0
1741737600.160000,40,-2.3348,-4.1931,-4.9370,-0.1866,-3.5042,1.3975,-20.6239,10.5155,1.6390,0.5400,8.3434,9.3016,3.4208,-1.6090,-2.7364,-9.0653,0.0
1741737600.164000,41,-4.5758,-7.3653,-6.1986,5.1337,-3.7446,-1.7815,-17.1501,9.6739,-2.3761,-3.0175,6.1699,5.9318,3.0068,-4.7994,-3.7861,-2.4779,0.0
1741737600.168000,42,-6.1640,-11.2661,-3.2928,8.8092,-2.7427,-3.3950,-12.4459,9.7339,-8.1472,-5.4263,6.4988,6.3613,-0.3511,-6.2344,-7.4756,2.4561,0.0
1741737600.172000,43,-5.1208,-7.2542,-2.8226,10.0556,-1.2350,-9.0592,-6.1206,6.8234,-13.5496,-6.7003,5.4993,7.3211,-6.7614,-9.8523,-10.6221,9.4647,0.0
1741737600.176000,44,-3.6448,-3.7444,-4.9311,8.2809,2.5755,-11.4131,0.3289,3.8094,-15.6438,-5.6856,0.3383,5.6892,-9.6868,-11.8227,-12.0113,13.6704,0.0
1741737600.180000,45,-2.1407,-2.0021,-2.6532,7.1470,4.0823,-11.0746,4.4843,3.6725,-19.2701,-5.4735,-1.2157,6.2999,-12.1210,-15.1774,-12.9486,16.0237,0.0
1741737600.184000,46,-0.6130,-2.1771,-0.8214,2.9543,1.4606,-14.4238,9.5223,2.8524,-19.9433,-6.7594,-1.8470,5.2371,-5.8453,-15.1325,-13.7993,18.1389,0.0
1741737600.188000,47,-2.6990,-1.0051,-0.7600,0.8491,2.2710,-17.7335,12.6289,2.9492,-16.6166,-11.2902,-2.3414,3.6403,1.9489,-13.5325,-8.4660,18.2525,0.0
1741737600.192000,48,-7.5888,2.5801,-1.3601,-2.5579,0.3223,-16.0550,15.8608,2.0981,-12.4152,-11.3880,0.0094,4.6084,4.8352,-9.6658,-1.1324,14.1353,0.0
1741737600.196000,49,-11.3840,7.1442,-3.7026,-2.6920,3.6953,-18.3051,14.0864,1.7945,-7.2438,-9.2951,0.6257,0.5600,4.5688,-7.0892,5.3593,10.8078,0.0
1741737600.200000,50,-12.6652,7.3901,-4.7691,-0.7327,3.8615,-11.6054,8.7672,-0.8800,-2.0106,-4.0811,-2.8576,0.3576,8.1739,-3.1582,13.7432,4.9017,0.0
1741737600.204000,51,-8.8495,9.0019,-3.8722,-3.2585,4.5219,-1.2100,7.8790,-4.7113,0.6165,-1.4055,-10.1798,0.5255,5.6688,-1.6600,14.9954,5.5147,0.0
1741737600.208000,52,-2.2239,7.2123,-6.5145,-2.8320,3.1834,3.8668,5.0285,-10.1235,5.8725,2.1087,-16.6014,-1.9959,1.3451,0.9901,15.4669,2.3274,0.0
1741737600.212000,53,2.6216,2.0884,-5.7251,-4.6187,3.0505,11.4980,3.7048,-12.8941,10.6205,5.3636,-16.9009,-4.7048,-3.8601,5.3575,14.8724,0.5819,0.0
1741737600.216000,54,9.9386,0.8327,-5.9031,-6.4238,2.5181,11.5205,1.3177,-15.7925,17.3979,7.2006,-13.2624,-6.3044,-8.0214,8.7806,12.1835,-1.9508,0.0
1741737600.220000,55,13.6685,-0.7613,-6.3507,-1.8724,5.0807,9.6709,-1.9211,-17.7540,17.8872,13.2268,-7.8251,-9.4407,-10.0398,6.3222,9.6639,-6.1785,0.0
1741737600.224000,56,15.4334,-5.4941,-4.2607,-1.5950,4.8870,9.3207,-7.5051,-14.0243,18.1020,12.9914,-1.8604,-12.3946,-11.9166,5.5472,3.7071,-11.6007,0.0
1741737600.228000,57,15.8317,-8.9083,-0.0097,-3.1327,2.4884,8.1403,-7.2525,-11.3265,16.4574,11.3224,5.6464,-11.7296,-6.5367,5.8571,0.0595,-14.9648,0.0
1741737600.232000,58,12.5413,-10.3266,4.4928,-5.7905,-1.9775,5.7138,-7.3762,-4.9410,11.2071,10.4729,7.9016,-9.4642,-5.4762,7.8115,-3.5783,-16.6346,0.0
1741737600.236000,59,4.5128,-10.5253,1.9457,-4.5413,-2.0672,4.1165,-8.2797,6.3045,9.2181,10.3537,13.5278,-5.2269,-5.8319,7.1895,-1.9246,-18.5786,0.0
1741737600.240000,60,-3.0725,-9.6267,4.9130,-3.5423,-2.1263,2.6744,-9.5282,8.9496,6.4815,6.9966,15.5477,-3.9729,-4.3444,3.7654,-7.5156,-15.8736,0.0
1741737600.244000,61,-4.8869,-6.8330,6.2488,0.4119,-0.9664,2.8727,-10.0682,12.3637,0.8387,5.0758,9.3501,-1.7304,-1.7883,-0.8605,-9.8776,-13.3637,0.0
1741737600.248000,62,-5.0339,-9.9748,3.3706,2.4469,-2.4381,7.0770,-8.8601,10.8746,-6.2489,-0.6771,1.0273,-2.1558,-1.1181,-4.1320,-11.4512,-8.9348,0.0
1741737600.252000,63,-0.2318,-9.6349,3.9972,5.4967,-4.1023,8.8173,-4.8593,12.2725,-10.8763,-6.3017,-6.0046,2.0826,-1.3160,-6.0488,-11.2375,-0.7125,0.0
1741737600.256000,64,0.6839,-7.9912,5.7418,8.9567,-5.2381,7.2054,-4.2867,12.9607,-13.5075,-9.2686,-5.7231,1.5170,-2.9731,-7.9489,-8.1291,6.1707,0.0
1741737600.260000,65,0.2011,-3.5984,3.8916,7.1917,-3.7374,-0.6081,-0.9376,8.5285,-15.4221,-16.7168,-1.8818,3.0043,0.6369,-8.6589,-7.6017,10.1760,0.0
1741737600.264000,66,1.6343,1.0179,4.4986,6.1873,-2.2030,-8.8412,3.6820,9.9930,-17.8775,-20.1988,-1.6916,5.0086,-0.0128,-7.4960,-5.2550,15.5018,0.0
1741737600.268000,67,2.2123,3.2273,3.0040,5.4846,-0.8319,-15.9328,6.6026,8.1280,-17.8341,-18.7024,-2.1610,8.2625,-0.0145,-7.7871,-6.0870,14.2918,0.0
1741737600.272000,68,0.2008,6.8262,-3.7887,4.0089,-1.6128,-16.4514,9.1666,4.8118,-15.7165,-19.6710,-1.7900,8.8865,6.0884,-6.4016,-3.2011,13.1079,0.0
1741737600.276000,69,0.5093,8.7780,-7.8521,2.7270,-1.9867,-16.7681,10.7376,3.5166,-9.5848,-17.0385,0.6752,9.0225,6.6174,-1.8156,0.3344,12.7379,0.0
1741737600.280000,70,-5.9969,5.6071,-12.0755,0.8162,-2.8605,-16.5798,10.2406,-1.0725,-4.1707,-10.7602,1.9014,6.0467,8.9845,-2.2969,4.3473,6.5555,0.0
1741737600.284000,71,-6.8108,3.3677,-15.0428,1.4178,-0.2297,-10.3523,8.8066,-1.2767,-1.3100,-6.1869,1.5740,1.1825,11.6068,-5.7612,8.6513,1.7427,0.0
1741737600.288000,72,-4.9150,2.0496,-13.5903,2.1238,3.5148,1.2937,6.6187,-3.3724,3.4671,-2.4171,-3.3102,-5.6361,11.2134,-5.6296,9.9249,-0.7506,0.0
1741737600.292000,73,1.6001,0.9128,-13.4661,1.8299,2.6051,8.6250,5.9462,-4.0339,5.2804,1.9361,-8.1550,-8.8368,6.5694,-2.0899,12.1450,-4.2282,0.0
1741737600.296000,74,5.4315,-2.0315,-8.1320,-1.5494,1.6597,13.1836,4.2545,-5.1484,6.8904,6.3597,-8.7966,-10.5325,6.0131,1.6602,13.2187,-5.6628,0.0
1741737600.300000,75,6.6672,-1.0785,-2.3527,-8.2855,0.8034,16.5859,2.1206,-5.0622,8.1052,8.3690,-6.2381,-11.2952,3.2156,2.7814,11.0609,-8.1903,0.0
1741737600.304000,76,9.7846,2.3156,-0.4646,-9.1067,2.9448,13.1829,-0.4601,-6.4212,13.0406,12.5373,-1.5567,-7.7904,0.7470,7.1220,7.1342,-11.2280,0.0
1741737600.308000,77,9.9420,3.5090,1.8256,-10.9756,0.6469,11.4563,-3.0673,-5.7359,12.1014,12.8420,2.2759,-2.9153,-3.1690,9.2664,6.6495,-13.3763,0.0
1741737600.312000,78,11.3726,0.0324,0.5505,-7.6142,0.4593,11.3384,-5.3661,-2.5584,14.1591,16.2684,3.2998,-1.1417,-5.5574,9.4503,1.9861,-12.7219,0.0
1741737600.316000,79,11.7688,-0.6514,0.6582,-2.1103,-0.2919,10.1898,-6.8934,0.0493,12.7040,15.8648,7.8702,0.6166,-5.9925,6.2196,0.9618,-13.6245,0.0
1741737600.320000,80,13.2213,-5.8021,0.4641,4.2231,-2.0744,5.2932,-10.6748,2.0435,11.1783,14.6671,12.0402,1.3773,-7.8650,3.1815,-1.3653,-11.3575,0.0
1741737600.324000,81,8.3401,-6.7081,3.6311,7.3287,0.9562,4.8757,-12.7105,8.6949,5.0334,11.0058,10.8372,2.2414,-6.8480,-0.3437,-1.5516,-10.8579,0.0
1741737600.328000,82,7.0469,-9.5902,5.5376,9.5935,0.4710,1.0627,-9.3357,10.7204,1.9741,8.5754,13.3081,0.5642,-4.9472,-6.2354,-2.8172,-9.4120,0.0
1741737600.332000,83,2.9186,-10.9839,9.8126,8.2568,2.9836,1.2658,-6.3413,11.5241,-6.0828,1.0343,7.9862,-0.9333,-4.1242,-7.9615,-6.8640,-5.2640,0.0
1741737600.336000,84,1.5704,-6.4018,9.1345,7.4461,3.1948,-0.4293,-1.8834,11.9773,-10.6856,-6.1881,8.3161,1.6392,-4.1538,-8.7705,-10.5884,-0.9755,0.0
1741737600.340000,85,1.4236,-2.7438,9.8236,8.9746,2.2862,-3.3903,4.6174,8.6130,-13.9550,-12.2116,6.7474,1.4901,-2.7667,-4.4116,-12.3138,2.4654,0.0
1741737600.344000,86,-1.4791,1.9755,6.8814,5.7603,2.0973,-5.7868,8.4749,8.6936,-13.7529,-13.9154,3.0212,7.2254,-1.6370,-3.2127,-11.7585,5.5066,0.0
1741737600.348000,87,-3.4022,7.9427,3.7213,5.1735,1.3743,-7.5409,9.1738,9.9447,-12.3225,-15.4765,1.7593,11.6817,2.5743,-2.7819,-9.3451,11.2128,0.0
1741737600.352000,88,-2.4003,7.5495,-3.1685,8.1810,2.3138,-6.7616,10.9250,8.1998,-10.7699,-13.3300,-0.5786,14.8056,9.2621,-6.6242,-5.3138,11.8849,0.0
1741737600.356000,89,-3.1675,4.4057,-6.7364,11.8411,1.7047,-4.9489,9.5256,8.0754,-9.7501,-11.0341,-5.6037,11.1661,7.1535,-6.4776,2.4106,11.8035,0.0
1741737600.360000,90,-0.1733,2.9039,-8.4266,13.3032,1.3145,-5.3291,10.8194,1.9123,-8.9092,-10.0928,-4.7003,6.1319,10.0325,-6.7506,7.2310,11.5562,0.0
1741737600.364000,91,-2.5060,0.9052,-8.6242,12.3678,3.2152,-7.1565,11.2685,-0.1538,-6.2614,-7.3788,-3.7004,-1.5516,11.7848,-8.3880,10.7389,12.8880,0.0
1741737600.368000,92,-3.6086,2.4046,-5.7493,11.5400,5.8107,-2.8102,12.3296,-4.1613,-4.1425,-7.7118,-5.2513,-7.0838,11.1875,-5.1663,10.1727,11.7727,0.0
1741737600.372000,93,0.1674,3.7956,-1.9991,3.9001,8.5631,-0.7536,13.0564,-9.4264,-2.0594,-5.7539,-5.0324,-5.0564,7.8769,0.3034,12.1303,10.6831,0.0
1741737600.376000,94,1.3094,5.8970,-2.4663,-0.8944,8.0371,4.0797,16.2849,-11.7574,1.0597,-0.6933,-5.5660,-4.7087,4.2031,5.6903,12.4699,9.3842,0.0
1741737600.380000,95,7.9011,6.1084,-3.2468,-2.3663,5.2715,7.7696,13.9118,-10.6444,3.9911,5.1323,-6.4264,-2.8977,2.9916,10.4569,11.8594,6.4361,0.0
1741737600.384000,96,10.6178,6.4615,-5.4195,-4.4620,3.7871,12.7251,11.0738,-10.0776,12.1084,7.9753,-3.9660,0.7086,-1.6633,14.9522,13.2554,3.4211,0.0
1741737600.388000,97,8.4472,2.6426,-8.7975,-3.3857,2.5983,11.6800,5.7323,-8.5532,12.8878,13.3683,0.9490,2.4976,-2.4843,12.2322,10.2998,-0.7272,0.0
1741737600.392000,98,5.9878,-1.9416,-7.0440,-1.1927,4.0473,12.5211,1.7268,-1.6890,16.9883,16.9529,5.6550,1.2439,-1.3429,8.6011,12.5467,-2.2429,0.0
1741737600.396000,99,6.3636,-7.7233,-7.8619,0.0722,2.1087,11.2347,-2.4344,-0.4308,14.9055,16.6820,8.4721,-0.7696,2.1775,7.7314,13.2270,-6.8111,0.0
1741737600.400000,100,2.0851,-13.7467,-3.6161,1.1799,3.3148,14.3297,-5.4438,2.7305,13.3841,16.7413,8.0314,-2.5234,-1.0145,2.2192,13.8021,-9.8749,0.0
1741737600.404000,101,-0.3671,-13.6985,-0.8761,-0.8889,5.4565,13.2913,-4.1997,4.7201,7.9058,13.9916,7.0373,-6.1148,-2.5212,0.1938,12.8692,-11.9992,0.0
1741737600.408000,102,0.7637,-14.6265,5.2147,-3.1162,7.0829,14.7204,-2.8088,6.9933,6.5777,9.8019,5.2815,-5.9612,-1.5235,2.2832,7.1520,-10.3277,0.0
1741737600.412000,103,1.0795,-9.3340,8.2326,-8.9825,4.4205,12.8394,-4.4684,8.8716,4.9916,3.4884,3.4776,-1.5500,-4.5328,5.8532,3.5290,-7.3238,0.0
1741737600.416000,104,5.3629,-3.2142,10.3854,-15.0219,3.7016,14.5249,-2.2117,9.4834,3.9574,-1.5808,3.9483,5.5794,-3.3987,6.1746,-1.3825,-6.8680,0.0
1741737600.420000,105,7.9076,0.4331,9.7560,-17.7531,-0.9017,13.2614,-8.1098,10.0495,0.0039,-2.3731,4.8057,12.1751,-3.6078,6.9090,-2.3960,-6.5206,0.0
1741737600.424000,106,7.4090,-0.7482,5.4666,-10.5892,-2.8327,6.5830,-9.8386,13.8036,0.7495,-5.5658,6.1203,14.9762,3.3628,4.1096,-2.3861,-7.6080,0.0
1741737600.428000,107,3.1612,-0.5909,2.6594,-5.6137,-3.4096,0.8734,-10.8776,15.3406,-2.4003,-11.0390,6.6110,16.1923,7.3077,-0.7939,-1.6276,-9.1580,0.0
1741737600.432000,108,-1.1711,1.0760,-1.1777,1.0701,-2.2402,-5.4797,-12.3582,17.8967,0.3201,-12.0889,11.4952,13.5543,11.8641,-3.5457,-1.1882,-8.3868,0.0
1741737600.436000,109,-3.3335,0.5342,-0.1715,1.9743,1.0654,-5.7643,-11.0083,15.9687,-4.1800,-15.4682,11.7135,9.7272,15.2255,-5.9212,-1.5633,-6.3077,0.0
1741737600.440000,110,-8.7550,4.0123,-1.2694,8.5545,4.5844,-8.7605,-10.6188,15.9341,-7.6854,-16.3015,7.0353,11.4823,13.8071,-5.9258,-1.2139,-4.1338,0.0
1741737600.444000,111,-7.3624,6.2091,-1.2414,5.2605,3.7865,-7.1915,-8.7107,12.4500,-11.4506,-14.7435,1.1128,8.9602,11.8673,-7.8225,-3.3234,-0.2859,0.0
1741737600.448000,112,-5.8427,9.4259,-5.9796,2.7589,3.0486,-2.2770,-3.0814,8.1642,-11.6276,-8.4780,-4.1330,10.1727,9.9082,-6.8109,-6.4829,4.1069,0.0
1741737600.452000,113,-3.1217,7.9219,-5.1640,6.3470,3.2238,-2.7258,0.6463,3.4727,-14.4056,-5.9961,-5.4165,7.5835,8.3621,-8.2821,-8.7958,10.8952,0.0
1741737600.456000,114,0.1420,5.3976,-7.5834,6.4364,2.0186,-2.2321,5.4929,2.6067,-12.1973,-1.4246,-6.8657,6.0681,5.6679,-7.9039,-9.7107,14.1616,0.0
1741737600.460000,115,1.7288,6.5742,-7.5153,10.2217,3.0676,-5.2908,7.4687,0.2155,-12.7272,5.6027,-4.3016,2.5308,6.4731,-6.5904,-5.7471,17.3146,0.0
1741737600.464000,116,0.3430,5.7299,-2.4128,11.6828,5.7014,-7.5299,8.2024,0.9085,-10.5964,6.6618,-1.5528,0.3471,6.5443,-7.5594,-2.3462,18.3762,0.0
1741737600.468000,117,-1.5333,5.4351,3.2942,11.5662,5.4124,-9.1553,10.0705,0.9879,-12.0896,8.8888,0.0158,-1.4531,6.9122,-5.2560,2.3188,18.1037,0.0
1741737600.472000,118,-5.3064,5.9813,9.6251,9.4859,5.7561,-10.4926,13.6361,0.7936,-10.6996,10.4893,-3.3777,-0.9982,5.5007,-5.2565,5.3618,18.9266,0.0
1741737600.476000,119,-4.8163,8.4491,13.4930,5.0201,5.2390,-8.8047,15.0644,-1.4320,-7.4131,9.8927,-3.7927,-2.6485,0.6687,2.0148,10.6339,18.7157,0.0
1741737600.480000,120,-4.2921,9.8796,13.2991,4.5509,3.5988,-5.4784,17.5730,-5.3891,-3.8960,7.2425,-7.7072,-0.4611,-3.9321,6.0390,9.9232,18.4147,0.0
1741737600.484000,121,-1.0589,13.1742,7.4095,6.0137,2.5012,-1.5973,16.4093,-10.0370,1.5211,9.9428,-11.7311,2.4151,-10.4678,9.6406,9.4578,20.9572,0.0
1741737600.488000,122,5.2024,12.5982,7.6375,4.7770,6.5337,5.9730,16.2689,-11.9631,7.8904,11.7546,-11.7338,2.4394,-13.4179,9.2501,10.8312,21.0177,0.0
1741737600.492000,123,12.4753,6.4416,2.2184,2.8013,4.7305,10.2234,12.5170,-11.0120,11.7080,13.4183,-10.3425,3.3514,-10.6058,10.3709,11.8584,16.1975,0.0
1741737600.496000,124,13.0608,-2.6858,-0.7423,4.3805,3.5834,10.6847,11.7902,-8.0562,13.5731,15.2205,-7.9827,-1.3009,-10.7286,7.8808,13.4299,7.9571,0.0
1741737600.500000,125,12.6850,-7.0529,1.3900,2.0669,5.2062,10.6362,8.3398,-6.1069,14.9953,10.3917,-2.8879,-6.2106,-9.5454,6.5907,14.3553,-0.3874,0.0
1741737600.504000,126,11.2306,-10.6050,5.8904,0.9454,6.1112,13.2025,4.6831,-4.9305,13.0135,8.1852,1.6928,-14.3786,-4.8519,8.9404,13.5116,-9.2222,0.0
1741737600.508000,127,6.9972,-9.6917,14.6501,-5.0280,5.7353,11.4815,0.3303,-2.2687,12.9450,4.3643,6.5841,-16.6339,-0.1672,10.9921,9.2771,-14.0651,0.0
1741737600.512000,128,3.3119,-5.8217,17.6162,-16.1453,6.6059,11.0216,-0.4856,4.0238,12.2055,-1.4058,5.3062,-12.3027,2.5097,11.3754,8.6572,-19.7861,0.0
1741737600.516000,129,2.0555,-1.4464,21.1161,-21.7202,1.7502,15.3627,-4.2114,2.4959,12.1964,-7.5323,1.8373,-7.0367,2.0588,19.8611,4.4223,-22.8198,0.0
1741737600.520000,130,3.6234,2.7712,14.1382,-24.1301,-1.6274,19.5836,-7.4821,0.9331,10.7684,-8.2054,-1.3365,0.1166,2.3318,20.5983,2.4889,-23.3598,0.0
1741737600.524000,131,6.2102,6.9411,8.0245,-18.2073,-7.1645,21.3383,-14.9463,3.6607,11.9777,-8.6867,-1.8891,5.0306,0.1816,23.7196,-3.4280,-20.0579,0.0
1741737600.528000,132,6.8457,5.4878,1.5013,-12.9840,-7.1568,22.0936,-19.2227,6.7715,9.5264,-8.1323,-1.3988,9.1964,-0.9959,19.8482,-3.1187,-17.9696,0.0
1741737600.532000,133,7.0473,1.8361,-2.7946,-3.4726,-7.3836,17.9949,-23.9405,8.8711,4.9700,-7.3883,-1.0117,12.1068,1.5638,13.9875,-2.9307,-17.0592,0.0
1741737600.536000,134,6.2611,-3.3513,-6.3469,2.5554,-7.4509,8.5503,-25.7939,11.7891,-1.6134,-8.5814,2.9076,10.2447,4.8616,4.9960,-5.6700,-14.5112,0.0
1741737600.540000,135,2.7126,-8.6216,-6.5688,6.6837,-5.3893,1.8515,-25.8689,13.6418,-12.2409,-5.7083,6.1798,8.1217,3.2054,-2.6088,-8.8557,-10.0984,0.0
1741737600.544000,136,-5.8587,-10.2840,-7.7725,10.0467,-3.2883,-9.2389,-16.6812,12.7078,-20.5684,-7.7044,8.3387,2.1572,0.8970,-5.2405,-13.5306,-5.5189,0.0
1741737600.548000,137,-10.9004,-3.4944,-5.9809,9.1356,-1.0005,-14.5321,-7.5371,8.8640,-23.2498,-8.7365,6.6810,-0.9924,0.1466,-7.8951,-17.7770,3.0368,0.0
1741737600.552000,138,-15.5626,1.9152,-3.7654,4.8533,-0.8290,-17.7889,-0.1441,7.7916,-29.4041,-9.1055,3.9525,1.4642,0.9472,-7.2616,-22.1415,8.6707,0.0
1741737600.556000,139,-14.7876,6.0115,-0.4045,0.8788,-0.4620,-17.2811,3.6197,4.4804,-30.1455,-5.9103,-2.5132,7.4512,-1.1078,-5.9313,-22.2327,16.0509,0.0
1741737600.560000,140,-16.4805,10.4047,-1.3789,-2.3080,-3.6465,-12.6179,8.8031,8.6964,-29.0499,-3.7584,-6.9229,12.1641,-0.9995,-4.1336,-15.3878,22.3855,0.0
1741737600.564000,141,-15.1806,11.5885,-5.9878,-1.3167,-5.0895,-11.2878,7.9371,5.0555,-27.2866,-2.8709,-10.4457,13.5523,-0.1637,-4.9455,-8.7353,24.6009,0.0
1741737600.568000,142,-15.0118,10.8629,-9.8086,1.1780,-5.5991,-11.4380,8.2564,1.6912,-21.5648,1.5228,-12.0575,9.5018,-0.3156,-7.4912,1.4875,25.1333,0.0
1741737600.572000,143,-18.6832,8.5542,-7.8360,7.3808,-6.3309,-12.1559,8.5458,-0.3679,-18.0218,2.5450,-14.0696,4.0214,1.3098,-6.9119,7.5459,23.7951,0.0
1741737600.576000,144,-17.0803,2.0487,-7.3772,5.4711,-1.7795,-13.6901,8.0311,-6.9662,-12.6487,4.4891,-11.5841,0.0847,2.1308,-2.8541,13.7969,24.3954,0.0
1741737600.580000,145,-12.8594,4.9060,-3.3643,2.3398,3.4080,-11.0502,9.4036,-9.6666,-7.4615,8.4677,-11.9952,-2.9835,-4.1960,-1.0724,17.0555,20.8217,0.0
1741737600.584000,146,-9.4745,4.6420,-5.3351,-1.9625,5.2160,-5.1968,11.8026,-16.6284,-2.1432,11.0887,-14.3847,-2.0681,-8.7453,2.9128,21.6746,18.3945,0.0
1741737600.588000,147,2.3716,5.0357,-1.7637,-6.0622,4.6426,-0.9180,7.9601,-19.8303,5.9550,17.0936,-15.3770,-5.8105,-12.6228,4.7909,20.4440,12.8810,0.0
1741737600.592000,148,7.2545,1.1839,-2.9758,-8.5442,4.8223,6.5084,6.1827,-24.5070,10.1795,18.7863,-14.0502,-7.5357,-15.3816,9.5875,15.7283,8.6389,0.0
1741737600.596000,149,10.6485,-0.3710,-0.2124,-12.0694,4.5459,10.1416,6.2654,-24.3613,16.7611,19.0582,-7.7199,-8.7528,-13.4113,11.2983,12.1713,2.3776,0.0
1741737600.600000,150,12.6271,-6.9675,0.9483,-15.7892,2.7133,10.7707,0.0202,-17.1190,22.2136,19.6013,-1.0836,-5.9605,-8.7391,14.8383,11.5383,-3.6356,0.0
1741737600.604000,151,9.0116,-10.1328,1.7114,-14.1437,3.3226,11.0559,-6.4643,-7.8148,23.0192,19.7335,6.3114,-6.4754,-4.5927,14.4548,10.4430,-14.1007,0.0
1741737600.608000,152,4.8599,-10.1559,2.9199,-9.8193,1.8713,10.3704,-12.4402,-1.0563,21.4069,15.9106,10.8820,-8.1166,0.5238,14.1715,11.2625,-18.3851,0.0
1741737600.612000,153,2.3515,-11.5767,7.1059,-8.0346,4.5053,13.5915,-15.5060,2.1442,22.0825,15.1594,12.9345,-8.4245,3.6927,6.3483,9.0829,-21.3504,0.0
1741737600.616000,154,-0.8787,-13.8384,9.4745,-6.7042,3.1734,14.0220,-14.2921,7.5197,14.2416,7.8106,6.9911,-10.2875,5.4630,9.4497,2.2349,-21.0478,0.0
1741737600.620000,155,-0.3913,-10.5824,12.2644,-9.6428,1.3805,14.8586,-14.1970,7.7222,9.3627,1.1572,5.0341,-2.5399,1.7278,7.3913,-3.7898,-15.3557,0.0
1741737600.624000,156,4.4041,-10.5159,12.8789,-9.6497,-1.5910,12.7446,-11.4075,11.2152,6.6507,-5.5815,1.0956,3.4755,-2.5511,7.3446,-7.7072,-7.3833,0.0
1741737600.628000,157,5.7875,-4.2492,7.6703,-6.4712,-3.3645,9.1475,-12.1168,8.3863,1.1446,-10.4091,-1.1594,3.8419,-3.1563,3.1344,-12.0859,-4.0164,0.0
1741737600.632000,158,6.2558,-3.7130,4.4673,0.5406,-2.8569,2.4487,-12.4800,8.9930,-7.4009,-17.3886,0.8061,9.5697,-4.8756,1.3291,-16.7507,-0.1624,0.0
1741737600.636000,159,8.3589,-5.2642,2.5737,1.9681,-1.8138,-3.8925,-8.6194,10.8748,-10.0183,-20.6103,-2.3774,9.2368,-0.9024,-4.8359,-16.1148,4.8772,0.0
1741737600.640000,160,4.9074,-2.9714,1.0594,4.4866,-3.2945,-11.6497,-3.9741,14.6859,-15.0795,-27.9561,1.7227,7.2992,7.1407,-6.7007,-14.8120,6.7948,0.0
1741737600.644000,161,-1.8853,0.0570,1.1512,7.3106,-4.2440,-20.7074,-0.5856,16.3098,-17.9384,-29.5643,6.4266,9.3547,6.9697,-6.6603,-13.6929,8.7918,0.0
1741737600.648000,162,-10.1596,6.3911,-1.5005,3.7584,0.7177,-23.8749,2.3153,15.1299,-18.7632,-28.5816,5.5039,10.1502,7.2008,-8.2569,-9.8534,7.8901,0.0
1741737600.652000,163,-13.7795,10.1592,-6.1250,6.9431,0.7955,-25.8360,5.2118,13.3170,-20.7581,-26.9020,1.0690,7.2405,9.1790,-6.8190,-9.7363,5.0996,0.0
1741737600.656000,164,-16.3018,10.1702,-8.5262,4.0563,0.7297,-18.3432,6.3677,5.9511,-19.9602,-23.0420,-6.9208,2.5377,8.4205,-8.1108,-8.0937,7.7943,0.0
1741737600.660000,165,-13.5723,7.5734,-10.2215,-1.5539,-2.2607,-10.0574,8.3453,-1.6852,-17.4432,-18.2450,-15.9500,1.6862,7.5887,-4.7614,-5.3394,4.3587,0.0
1741737600.664000,166,-9.2659,9.1119,-11.1697,-2.6251,-2.2706,-2.7609,11.7936,-7.2953,-12.3703,-12.4088,-19.4758,0.1968,3.5085,-1.7604,-2.6400,5.0807,0.0
1741737600.668000,167,-3.3397,8.4149,-14.7072,-6.9362,-5.6175,2.2755,7.9289,-11.8056,-6.0674,-5.8604,-20.3617,-6.2481,1.2885,0.2626,3.0871,4.4726,0.0
1741737600.672000,168,-1.0377,9.0576,-13.4595,-3.5297,1.0888,3.4757,5.6412,-13.3782,-0.4539,0.7424,-17.1655,-9.2283,-3.4093,0.2141,8.0867,0.0512,0.0
1741737600.676000,169,2.2896,6.4241,-10.1187,-4.3673,0.4351,5.4235,-0.3916,-13.2340,0.4219,5.8127,-12.3795,-12.3590,-5.8882,3.8753,8.5935,-5.8895,0.0
1741737600.680000,170,4.7994,6.0531,-4.1763,-7.1295,-2.4133,2.8289,-1.8446,-13.6497,1.9680,10.4494,-10.9399,-12.9335,-6.5225,4.8780,9.4995,-9.7356,0.0
1741737600.684000,171,5.0600,3.7914,-2.1427,-11.8873,-4.3874,1.0407,-4.9669,-13.1948,4.4549,15.5484,-5.8206,-12.6071,-10.8976,9.4939,8.7225,-10.1862,0.0
1741737600.688000,172,3.4487,1.5133,-0.9442,-11.8483,-7.0588,1.8546,-5.3995,-11.0861,7.6478,19.2866,-1.7910,-7.7950,-13.5015,11.2598,5.0466,-13.3550,0.0
1741737600.692000,173,-0.7484,0.5918,-5.1144,-9.7773,-6.0652,1.3373,-8.6514,-12.2620,10.2925,22.8827,0.4905,-7.5877,-17.3695,12.5865,0.8264,-15.1892,0.0
1741737600.696000,174,0.6942,-2.5579,-5.2418,-4.7816,-3.9381,4.3300,-13.1195,-10.5643,7.1252,23.0355,2.3601,-10.9720,-19.2238,7.2325,-1.2223,-12.2456,0.0
1741737600.700000,175,2.2604,-10.9806,-3.1636,2.6053,-5.1518,9.1054,-14.8635,-9.4674,5.9998,24.6693,-0.5462,-9.2343,-19.4294,5.2404,-4.3881,-7.2146,0.0
1741737600.704000,176,2.2188,-16.1219,0.5270,0.9196,-6.6530,10.3668,-12.9333,-3.1985,0.4655,18.0170,-1.5097,-9.2956,-16.7053,-1.9373,-6.6601,-3.1183,0.0
1741737600.708000,177,1.6908,-15.8318,5.8768,2.7953,-8.9818,6.5387,-12.1795,4.2033,-5.9669,14.7619,1.9784,-8.7950,-12.3049,-3.7944,-6.8864,-0.8216,0.0
1741737600.712000,178,0.0793,-14.4106,9.3978,2.2758,-3.9942,4.8985,-8.1750,5.6729,-10.7141,6.3400,4.6766,-4.9368,-11.5222,-5.1610,-8.0474,-0.4275,0.0
1741737600.716000,179,-6.8091,-10.0243,10.4945,0.9232,-4.4475,-5.6083,-4.7117,7.1818,-14.5618,-1.2538,3.9481,-4.1311,-8.6931,-6.5837,-7.6277,3.2946,0.0
1741737600.720000,180,-12.3801,-7.1990,7.7364,-0.5297,-3.9935,-10.9927,0.3995,8.0164,-16.5947,-8.5358,3.7434,-0.7954,-3.1653,-5.3423,-9.6841,9.4772,0.0
1741737600.724000,181,-9.8003,-3.7480,6.4048,-0.1727,-7.5111,-13.2252,3.4713,7.1354,-17.7992,-14.3949,-0.8196,4.7416,-1.9623,-4.4727,-7.3700,13.4685,0.0
1741737600.728000,182,-9.6496,-0.9121,0.0361,-0.8756,-7.9165,-12.2185,8.0994,3.4454,-15.2972,-16.7422,-2.7465,7.0578,0.8667,-5.4118,-5.4258,18.0745,0.0
1741737600.732000,183,-10.7371,-0.7973,-6.3824,0.3390,-8.3777,-9.9974,4.8318,2.7960,-11.7356,-17.0632,-5.7451,9.4763,3.9756,-8.0483,0.1368,19.2877,0.0
1741737600.736000,184,-5.4873,-0.6773,-11.6505,3.8376,-3.5505,-8.5393,4.9749,-1.8153,-5.8360,-15.7948,-6.7484,3.7859,6.7072,-9.0825,5.5331,17.5212,0.0
1741737600.740000,185,-3.7513,-2.4671,-8.6468,5.8039,-0.8734,-8.8505,3.1942,-2.2868,-8.5374,-14.6342,-8.0589,0.2045,8.8956,-10.0323,9.2547,15.0970,0.0
1741737600.744000,186,-1.9014,-4.3297,-8.5160,2.8899,0.3703,-5.8960,1.6274,-4.9618,-6.6264,-17.2581,-10.0184,-4.7011,8.6708,-8.3661,10.6887,12.6825,0.0
1741737600.748000,187,-1.6198,-2.9319,-5.6679,-3.6218,0.9683,-4.7576,5.8259,-6.8289,-4.3423,-16.7910,-6.6960,-7.5863,7.5595,-3.5520,11.2619,10.9673,0.0
1741737600.752000,188,-0.6834,3.1621,-4.7588,-9.4356,-1.2142,-4.7797,8.1967,-7.8025,0.1899,-15.4181,-1.7968,-5.1901,6.2947,-0.4001,9.7182,6.2200,0.0
1741737600.756000,189,-0.7405,9.1064,-5.8986,-14.2913,2.0471,-2.1312,5.2141,-11.0610,8.2607,-11.7026,-1.5100,-2.5636,6.9345,2.8636,9.4112,0.3360,0.0
1741737600.760000,190,1.3651,8.1724,-9.2380,-13.3700,0.6438,2.1026,1.2231,-10.2510,9.3270,-4.8146,0.5516,-1.7880,3.3234,8.2360,9.1031,-6.5620,0.0
1741737600.764000,191,5.7157,6.8255,-13.0189,-12.6128,-0.5525,7.4607,-0.6722,-11.2675,14.8680,0.4939,-1.6066,0.0300,0.0077,9.5277,6.6566,-8.9259,0.0
1741737600.768000,192,5.5449,-0.9339,-18.0927,-9.5345,-3.9080,10.8502,-7.0250,-7.6121,16.8985,7.3098,-1.5310,-0.2872,-3.0068,7.3299,7.6001,-13.7674,0.0
1741737600.772000,193,5.4457,-7.6764,-16.8985,-6.6812,-2.1755,13.0653,-11.3904,-3.7402,16.0807,13.6985,-0.9917,-4.4653,-6.4859,5.6515,8.8978,-16.8620,0.0
1741737600.776000,194,7.4010,-15.5207,-14.7485,-0.9913,-2.0603,10.5602,-13.8780,-1.9232,14.0196,14.3366,5.1990,-11.4507,-5.5348,-1.7056,6.5941,-16.5951,0.0
1741737600.780000,195,1.1280,-18.0242,-7.0362,0.3223,0.9543,7.4724,-17.0635,2.7871,9.6942,12.9827,6.3171,-13.8897,-7.2212,-6.4145,1.8451,-17.3831,0.0
1741737600.784000,196,1.8346,-17.5367,3.5933,-3.8648,1.7992,5.3563,-14.6014,3.0784,1.8565,8.8776,4.4188,-16.7025,-7.0051,-7.2816,-4.2790,-18.3600,0.0
1741737600.788000,197,3.0186,-11.9393,8.3677,-7.5437,-0.7054,2.4956,-9.7444,5.6173,-5.5579,0.1324,4.3300,-11.0174,-13.0304,-2.3705,-9.1194,-13.9293,0.0
1741737600.792000,198,2.5652,-3.9481,14.4041,-11.5590,-2.0530,-0.4417,-9.8163,7.4521,-7.1653,-4.0057,3.5357,-1.5015,-16.1077,0.2352,-16.2766,-11.7160,0.0
1741737600.796000,199,3.1353,4.2518,12.2524,-9.8512,-5.1405,-4.6923,-7.8932,6.0959,-7.7237,-10.0112,2.8400,4.7006,-17.8890,3.2560,-17.8701,-6.2283,0.0
1741737600.800000,200,1.8572,7.7336,3.4928,-6.2297,-7.2915,-5.8969,-7.4742,7.1731,-9.4739,-11.3721,4.0224,14.3441,-12.9279,3.6924,-15.4235,-3.4559,0.0
1741737600.804000,201,-0.7624,5.9159,-2.3573,-0.3136,-7.5839,-9.1054,-12.0031,9.5155,-7.8202,-10.0043,1.5467,16.2452,-8.9182,-1.5508,-12.6889,0.6229,0.0
1741737600.808000,202,-4.1566,-3.1370,-9.1359,6.0307,-5.1312,-10.9496,-10.4590,10.7513,-10.6370,-12.9786,-0.9170,10.4498,-1.1860,-10.4744,-9.3913,0.7348,0.0
1741737600.812000,203,-7.9669,-6.8273,-13.4900,14.9399,-6.3239,-13.7517,-10.1022,9.9877,-14.2112,-11.4157,-1.0699,7.1407,1.6370,-13.5314,-6.7502,0.1084,0.0
1741737600.816000,204,-12.1109,-9.0163,-11.9534,19.1503,-1.1759,-15.4377,-3.8867,6.9234,-15.8410,-12.7366,2.9731,-3.4879,2.1868,-17.6881,-5.5880,2.4992,0.0
1741737600.820000,205,-12.7523,-7.1946,-7.7448,16.1089,3.2667,-15.8530,0.6449,2.9048,-20.1731,-12.4913,0.4411,-10.1798,2.4412,-18.3345,-5.5881,3.1608,0.0
1741737600.824000,206,-10.9167,-2.6944,-3.2988,9.4857,3.4310,-14.6099,4.6868,-3.9575,-20.7669,-10.5327,-4.2092,-12.0233,2.3782,-14.0242,-7.0846,7.8965,0.0
1741737600.828000,207,-8.0107,0.5098,0.3987,2.1854,3.7567,-6.3737,12.6968,-6.0574,-19.9323,-9.3294,-11.0003,-8.7640,3.9595,-9.5482,-8.0648,9.1259,0.0
1741737600.832000,208,-0.3559,7.8000,-0.7716,-6.3411,-4.4159,-4.5261,13.6746,-9.9285,-16.9341,-7.0056,-14.7127,-4.5466,1.1607,-3.4200,-5.9926,13.3857,0.0
1741737600.836000,209,2.6016,7.2903,-6.6449,-6.2764,-4.1672,-4.3051,12.2700,-11.5641,-9.2693,-1.1993,-11.4307,-1.0795,2.1310,1.7185,-1.7978,13.8747,0.0
1741737600.840000,210,3.9144,9.3815,-11.4842,-2.7832,-5.2648,-3.8982,8.6896,-9.4564,-0.0207,4.1626,-8.4693,-4.0028,1.8144,0.2913,3.7473,9.9383,0.0
1741737600.844000,211,3.2929,4.1709,-9.4910,4.6933,-4.7298,-3.6332,4.0789,-9.8164,5.9295,7.7764,-2.0535,-4.3615,5.7943,1.6984,10.2345,9.0526,0.0
1741737600.848000,212,1.9713,0.2217,-7.7628,9.5826,-1.0041,-3.4456,0.7256,-5.0609,6.7628,7.4285,0.0633,-4.4346,5.8331,2.0185,16.5556,7.6475,0.0
1741737600.852000,213,3.0531,-7.2529,-6.4894,11.6840,2.6637,-1.1898,-0.2986,-5.6488,6.3995,12.2299,2.3383,-7.9572,6.2781,-0.4715,16.4313,4.9853,0.0
1741737600.856000,214,1.4337,-8.3537,-2.9985,8.5617,-0.5948,2.8603,1.3100,-6.2517,7.1276,12.5144,-0.0627,-9.6976,-1.1700,-0.0368,15.2925,2.7929,0.0
1741737600.860000,215,6.6066,-9.9998,-0.0955,7.2753,3.5372,4.6298,4.1124,-8.1405,9.0989,13.6948,0.0513,-12.4248,-9.0056,0.9535,11.9488,4.5377,0.0
1741737600.864000,216,8.3391,-8.7439,2.0811,4.5829,3.1409,10.0841,8.9980,-11.6181,10.1515,11.5650,-1.1962,-15.4147,-12.6244,-0.6014,7.5050,5.5834,0.0
1741737600.868000,217,14.4877,-9.3903,2.5772,-0.1030,3.5454,12.4561,8.0474,-10.5561,10.5808,8.1619,-0.8958,-9.0690,-13.7912,1.2574,2.3379,5.0520,0.0
1741737600.872000,218,19.4863,-9.8075,3.1460,-3.7886,0.5003,14.2367,5.4796,-5.4009,11.7539,8.3464,3.5492,-4.0412,-10.1539,3.7185,-0.1852,2.6496,0.0
1741737600.876000,219,17.3930,-10.4033,2.9968,-4.5967,0.5620,12.3352,4.7350,2.5440,11.9003,1.8528,8.7133,-2.4929,-2.6900,2.8942,3.8919,-4.0629,0.0
1741737600.880000,220,13.3895,-12.4154,3.7388,-3.7136,-1.1625,11.0854,1.9754,10.6795,10.4709,-2.1065,14.7083,-1.8239,2.3445,2.1025,7.4000,-10.1638,0.0
1741737600.884000,221,8.1410,-10.4849,5.2047,-0.8878,0.4200,6.2308,-4.6079,15.4515,9.1251,-5.5258,18.2264,-1.1003,7.7985,0.0849,8.8613,-17.4511,0.0
1741737600.888000,222,3.0420,-8.2465,7.4511,-1.7279,1.8545,3.2802,-6.7488,17.5744,10.2589,-12.5198,18.6455,-2.8093,11.9256,2.6243,11.0585,-19.2954,0.0
1741737600.892000,223,0.4974,-2.5332,10.3465,-5.1475,0.5721,4.7768,-7.2095,16.3842,5.3411,-18.1299,13.8790,0.8663,12.8624,3.9634,7.4364,-21.4949,0.0
1741737600.896000,224,3.7187,2.5202,9.2860,-7.2186,-0.3074,8.9586,-8.5303,10.9535,4.0964,-22.1983,7.3683,6.0746,8.9661,6.1489,3.5263,-18.0790,0.0
1741737600.900000,225,8.8659,8.2470,2.0746,-7.7980,-0.2532,9.6492,-8.5705,8.6072,7.1422,-22.5140,1.5549,12.3427,6.8672,4.4739,0.8798,-13.6641,0.0
1741737600.904000,226,11.9870,6.6765,-6.5846,-2.5783,0.6054,12.9938,-8.9047,4.2297,6.7952,-20.0418,-1.3996,13.4165,2.3452,2.8002,-3.7351,-12.7806,0.0
1741737600.908000,227,17.3724,5.6619,-12.9137,4.2462,-0.5158,10.1381,-10.5988,2.8023,4.8943,-16.1162,0.2082,12.5860,1.3713,-0.4477,-6.0396,-11.1971,0.0
1741737600.912000,228,18.7637,3.8192,-15.1926,8.9470,0.4272,3.7462,-10.3241,4.2556,0.3885,-13.6952,6.6215,9.9353,2.5419,-4.9946,-11.0913,-10.0953,0.0
1741737600.916000,229,13.3121,-0.4548,-10.9149,11.8907,0.6420,-3.1173,-12.5845,7.5469,-3.2465,-12.0262,12.9374,4.7212,6.9973,-8.7321,-9.6962,-8.6259,0.0
1741737600.920000,230,5.1759,-0.7856,-8.8733,13.9850,1.9158,-9.5740,-10.2406,14.9257,-8.1734,-3.9633,17.1808,2.1410,12.0426,-10.0773,-10.8088,-9.6610,0.0
1741737600.924000,231,-3.1784,1.0762,-7.3190,12.4595,4.1309,-13.7686,-4.8878,14.9194,-14.4333,-2.8624,16.5383,-1.5615,11.2856,-13.3243,-9.2453,-7.5243,0.0
1741737600.928000,232,-8.9105,3.8402,-4.6658,8.1440,2.9635,-12.4183,-0.6506,12.5660,-17.9206,-0.6937,11.4328,-1.8835,8.7902,-12.1882,-10.1646,-2.7144,0.0
1741737600.932000,233,-12.8635,8.1649,-2.3312,8.2460,2.8275,-8.7687,8.6556,9.1928,-19.3650,-1.4821,2.2623,1.2552,6.0811,-9.3461,-12.8014,5.3361,0.0
1741737600.936000,234,-6.8175,11.9970,-1.6737,9.1792,1.5466,-2.2727,11.3373,3.7792,-15.9548,3.4229,-5.1447,3.8859,-0.6865,-2.4525,-11.5487,12.9472,0.0
1741737600.940000,235,-3.9092,14.8829,1.0793,9.2093,0.2069,4.3158,14.5796,1.1541,-12.5442,5.3892,-10.9445,9.6153,-7.2473,-2.4408,-7.3986,19.5221,0.0
1741737600.944000,236,0.8500,14.0499,-2.7180,12.8728,0.9876,3.7770,10.0086,-0.6372,-11.6384,10.8737,-12.1251,7.2239,-8.1349,-5.3155,-0.2214,24.1962,0.0
1741737600.948000,237,7.0320,9.9601,-4.9650,15.8997,1.3311,4.5544,11.4095,-1.6934,-6.9477,13.7955,-11.3001,7.2581,-8.4419,-6.1714,7.1585,25.0305,0.0
1741737600.952000,238,7.2090,0.7912,-3.1812,17.5152,1.9435,-1.4461,11.7956,-4.5332,-4.9082,16.1601,-9.1270,4.6293,-7.5292,-8.0163,11.0022,22.7651,0.0
1741737600.956000,239,5.0012,-1.9636,0.9060,19.1482,4.7397,-7.4019,15.4773,-5.2767,-6.6595,12.8280,-1.5890,-2.3744,-8.3538,-4.7097,13.1618,23.7991,0.0
1741737600.960000,240,0.5617,-2.1840,3.5886,15.3765,6.5508,-10.4052,17.2189,-9.3968,-1.8232,9.9332,5.0281,-6.5779,-5.7944,-0.5522,16.0207,19.4916,0.0
1741737600.964000,241,-0.8421,0.2664,7.6592,8.0781,10.0725,-6.6986,19.7176,-10.6618,4.4722,10.4964,6.7379,-5.7439,-3.4553,3.7443,15.4029,16.8141,0.0
1741737600.968000,242,-0.0660,1.9598,8.2285,-0.0527,10.2166,0.7658,19.9177,-11.3120,9.4184,11.8374,4.2660,-4.6302,-5.0785,5.8703,15.7557,12.8687,0.0
1741737600.972000,243,3.6044,0.2136,5.6122,-5.9735,8.5534,10.3252,21.0335,-13.7848,14.6969,12.0002,-2.5837,-2.5713,-5.0678,9.0282,17.0069,7.9402,0.0
1741737600.976000,244,8.8578,0.0174,2.0135,-6.6462,6.5589,21.7672,12.9729,-10.3641,19.0425,12.5190,-1.8559,-1.2218,-2.3493,11.8933,17.2497,1.8815,0.0
1741737600.980000,245,11.0354,-5.2174,-0.0406,-5.1831,5.0363,26.8032,10.1625,-6.9729,24.2821,10.6380,0.0474,-1.1489,3.1029,13.5741,18.9782,-3.4509,0.0
1741737600.984000,246,8.7489,-6.5061,1.9943,-6.5726,3.6346,28.2838,1.0028,-0.6738,28.5037,11.9203,2.8252,0.2015,7.0218,10.3919,18.1061,-8.0668,0.0
1741737600.988000,247,7.0752,-9.4318,4.2142,-6.3406,4.4859,24.7739,-5.4167,4.4056,27.9206,8.7802,8.3397,-2.6784,13.0518,10.6044,21.7903,-11.0466,0.0
1741737600.992000,248,6.9998,-8.4850,5.8918,-4.6353,7.9189,20.6797,-6.5499,6.4145,24.3369,4.1608,10.8890,-2.1862,15.5204,6.6166,19.0451,-13.9750,0.0
1741737600.996000,249,8.2614,-9.7785,7.9948,-9.2381,6.8426,18.9827,-7.3570,8.6895,18.9019,2.5434,11.6799,-0.9168,12.4205,6.1261,14.4188,-15.7045,0.0
1741737601.000000,250,7.0617,-5.9274,11.0441,-7.3934,4.5896,18.0434,-7.6951,8.9227,16.4058,-1.9234,10.9832,3.3626,8.8810,10.3208,6.9499,-14.1422,0.0
1741737601.004000,251,6.3090,-3.0373,5.5959,-7.1832,1.3869,15.8800,-8.1734,10.0844,13.5208,-5.7137,7.2725,9.5323,4.9991,14.1324,1.5841,-8.1335,0.0
1741737601.008000,252,9.6708,3.1275,5.8395,-7.7312,2.3987,12.3679,-7.3882,11.3116,10.2174,-6.1701,9.1601,13.9139,5.9462,10.7531,-2.8253,-8.9249,0.0
1741737601.012000,253,8.4297,1.8117,-1.1747,-5.3718,0.8003,8.1664,-10.9274,16.6015,6.5589,-9.4634,9.1478,18.1874,5.1773,5.1995,-8.6007,-6.3221,0.0
1741737601.016000,254,6.8835,1.6234,-3.0814,0.0552,0.5148,4.4802,-13.0644,20.3516,1.8267,-9.0767,12.9879,18.1746,7.6126,-1.3153,-9.6744,-2.3900,0.0
1741737601.020000,255,3.8705,0.0355,-4.0703,4.7481,-1.4339,-0.5308,-8.9256,23.1993,-4.8488,-10.2637,12.8418,15.1457,13.2233,-6.2328,-7.8759,0.2191,0.0
1741737601.024000,256,-4.5743,0.0189,-6.0370,8.8107,0.9839,-8.2226,-5.3707,23.0309,-10.8295,-12.7808,12.1635,11.3635,13.3797,-10.3002,-5.7561,-1.0669,0.0
1741737601.028000,257,-10.7797,3.0624,-1.1233,7.0942,4.5732,-12.0700,-3.2044,24.3971,-17.3109,-16.6097,11.3905,10.4530,14.7643,-9.3471,-8.0455,-0.1184,0.0
1741737601.032000,258,-17.2310,8.1819,3.4229,1.5758,4.3531,-12.6529,-0.1475,17.8714,-18.8762,-15.4433,5.0314,12.0026,10.7496,-8.0340,-6.8366,2.8121,0.0
1741737601.036000,259,-16.0362,14.5609,3.5322,-0.3412,6.3340,-10.0551,5.1651,13.1868,-20.2069,-11.6780,-4.9896,12.2048,5.3844,-6.6375,-5.4937,7.0706,0.0
1741737601.040000,260,-11.7486,18.9533,0.6614,-2.3020,1.0299,-5.0069,6.7713,7.1282,-18.8795,-9.1631,-13.0783,13.3459,0.2396,-4.6585,-6.3312,11.8957,0.0
1741737601.044000,261,-3.9415,19.9117,-2.3377,-1.1393,2.1514,-2.3185,7.7996,0.5858,-16.4190,-4.5281,-17.5400,15.0699,-0.8884,-0.1121,-4.6533,12.8030,0.0
1741737601.048000,262,-2.4651,18.2487,-5.0981,-1.7695,0.1193,-3.0619,7.6662,-4.0392,-8.9711,0.7772,-17.5235,9.8542,-1.8535,-0.7452,-2.0198,15.2205,0.0
1741737601.052000,263,-1.0122,14.0182,-4.5450,3.6863,-1.2868,-6.9574,6.8228,-5.0860,-6.5471,5.4943,-13.0128,6.1180,-1.6187,-2.0489,2.1996,12.1968,0.0
1741737601.056000,264,-3.5373,14.9011,-1.6700,3.2849,3.6584,-9.6654,5.5734,-7.9793,-2.3386,7.6642,-8.9084,4.0621,-1.5798,-0.5157,7.6807,10.5890,0.0
1741737601.060000,265,-0.9293,10.6372,0.4653,4.3875,4.2308,-10.5273,4.8375,-8.1134,-2.3029,14.6741,-7.2026,-1.6988,-4.1793,0.6840,9.2719,7.6242,0.0
1741737601.064000,266,-1.8054,10.0276,4.7206,3.9123,3.2711,-7.8764,4.3444,-10.1726,-0.7789,17.0494,-7.1970,-4.3707,-7.5590,5.6506,8.7816,4.8869,0.0
1741737601.068000,267,-4.0456,7.6034,6.4678,1.1870,0.8553,-7.1793,3.3902,-12.1429,-0.6089,18.9662,-10.1385,-7.5578,-7.7761,8.9093,5.2854,2.7969,0.0
1741737601.072000,268,-4.3292,7.7079,9.2308,-0.6159,-0.8355,0.7004,5.3828,-14.0767,4.2234,23.4778,-9.7067,-7.5403,-13.9024,8.9832,0.3111,4.5081,0.0
1741737601.076000,269,-2.3975,6.4225,8.6002,-3.2798,-0.2830,4.7157,6.9084,-16.6596,4.8024,23.7129,-10.3317,-5.1700,-14.2789,9.6609,0.1323,5.6539,0.0
1741737601.080000,270,3.0403,3.4580,7.6285,-1.1277,0.2952,7.6127,4.7692,-11.8877,6.2729,22.8339,-9.9050,-6.2975,-14.0879,10.9803,-1.3631,7.8660,0.0
1741737601.084000,271,4.1959,-1.6363,8.1869,2.5294,1.1001,12.1932,2.9746,-10.3432,3.2915,19.4608,-9.7976,-7.0349,-14.6430,7.3134,-0.9642,7.0152,0.0
1741737601.088000,272,3.0773,-4.0598,11.3772,6.7657,-0.8192,11.7829,3.7396,-7.1142,3.4226,17.9686,-7.1495,-7.8210,-9.6824,7.1220,0.9911,6.9867,0.0
1741737601.092000,273,1.3568,-7.5012,13.2435,2.5371,-1.8231,5.5454,1.1598,-2.4616,-1.8283,12.2336,-5.3108,-6.8819,-6.5877,6.8161,4.0571,8.0814,0.0
1741737601.096000,274,-3.1290,-10.0350,15.3357,1.0838,-2.8310,1.8995,4.7485,1.7855,-2.9995,6.4157,-2.7259,-6.8985,-5.5900,10.4320,2.9674,7.2897,0.0
1741737601.100000,275,-6.6950,-5.3492,15.6863,-4.6113,-1.6934,-3.9768,4.4137,1.7711,-2.0541,1.0825,-0.8181,-0.5919,-4.0440,9.5077,5.2790,8.8713,0.0
1741737601.104000,276,-8.8299,-4.3797,14.0666,-6.3911,-1.1488,-5.5086,5.6520,-0.7956,-2.8885,-4.7802,-3.6389,-2.9695,-4.3330,11.1026,2.6750,7.9885,0.0
1741737601.108000,277,-7.7200,-1.6243,8.2216,-7.4151,-3.6068,-1.9352,4.6651,-2.3712,-0.6969,-8.7818,-7.0374,0.3084,-1.6567,12.2084,2.5294,9.6584,0.0
1741737601.112000,278,-1.9643,-3.3996,6.5644,-9.0092,-3.0197,3.7448,6.4691,-3.6808,-0.0787,-13.2428,-10.6594,0.1007,-2.2604,12.2402,0.5863,6.7606,0.0
1741737601.116000,279,0.3225,-1.6386,5.2662,-10.7911,-4.9687,4.2098,2.0466,-6.5125,-1.4199,-15.1445,-8.3053,4.0469,0.6308,10.2683,4.0895,3.8111,0.0
1741737601.120000,280,-0.0653,-3.2649,0.4500,-10.4846,-3.7481,6.0067,-0.9177,-1.4584,4.3350,-17.2641,-8.7648,5.1306,3.8004,9.5803,6.0269,1.1376,0.0
1741737601.124000,281,-1.4606,-1.2362,-0.6559,-9.3392,-5.2052,5.4209,-1.9770,-0.9393,1.7393,-19.1729,-3.0620,1.5497,4.0757,11.5338,8.4624,-6.5061,0.0
1741737601.128000,282,-3.4704,-1.3570,-4.5216,-10.4350,-2.9412,0.1702,-7.0438,-0.0444,2.8734,-17.9902,-1.3691,0.6717,7.0525,8.0976,7.3395,-10.1562,0.0
1741737601.132000,283,-8.7958,0.6548,-6.7632,-14.8016,-2.8488,0.6849,-10.7776,-0.3824,1.9821,-18.0783,-0.2804,-1.5069,6.9781,10.8341,4.5944,-13.9312,0.0
1741737601.136000,284,-5.3298,-0.2917,-8.0193,-16.0595,-6.6545,1.9283,-11.5309,-1.3296,1.3099,-14.7832,0.0638,-2.1715,9.1676,11.5726,1.2980,-18.9307,0.0
1741737601.140000,285,-6.2353,2.0372,-12.4978,-17.1522,-7.0771,2.7509,-10.6407,-1.7320,2.9375,-10.1564,-1.8897,5.0321,3.1317,10.9140,-0.2194,-15.8781,0.0
1741737601.144000,286,-5.5277,0.8763,-14.6525,-18.8547,-5.1584,4.7297,-14.7383,-2.7500,1.9955,-4.8211,-3.7828,3.9550,-1.0019,9.7835,-3.5188,-18.7266,0.0
1741737601.148000,287,-3.5016,-1.9220,-17.0327,-14.0269,-6.0301,5.7709,-16.7633,-1.8687,1.6876,2.5077,-7.0355,0.9658,-4.8045,3.8208,-7.5969,-17.0185,0.0
1741737601.152000,288,-0.9931,-6.1801,-11.2216,-8.8957,-5.6689,4.9652,-19.8024,-2.7255,-4.8941,5.3435,-4.0980,-0.5409,-7.0118,0.0954,-8.3397,-13.6368,0.0
1741737601.156000,289,0.6826,-6.6258,-8.5384,-8.2125,-8.1565,0.2386,-19.0345,-0.6829,-7.6306,4.1757,-3.3633,-1.7626,-5.9140,-2.0240,-12.9998,-11.8035,0.0
1741737601.160000,290,-2.3016,-4.8055,-1.0236,-7.4166,-7.9740,-5.9022,-19.8144,3.5550,-11.4185,3.2318,-1.0415,-2.5439,-6.6629,-2.1455,-11.5822,-6.2463,0.0
1741737601.164000,291,-8.0821,-1.7615,1.2754,-5.8923,-6.9596,-14.8545,-17.0439,5.7948,-16.0194,0.9130,0.6022,1.8510,-10.3553,-3.6294,-12.9022,1.0273,0.0
1741737601.168000,292,-11.3355,1.9480,3.0860,-5.2840,-6.4980,-20.4871,-10.3441,3.8087,-18.4257,0.2375,4.1199,2.4704,-11.0308,-3.2439,-13.1390,3.5312,0.0
1741737601.172000,293,-14.5093,6.8715,0.1088,-2.9420,-6.3637,-22.5610,-5.8132,1.1292,-19.7097,-2.1721,1.3897,5.7876,-13.6375,-2.3481,-15.9230,6.6478,0.0
1741737601.176000,294,-14.4242,6.4473,-2.9701,0.6364,-4.0121,-23.0319,-3.1906,0.8778,-18.4567,-0.4138,-3.2391,9.7949,-15.5749,-4.2858,-13.9418,13.7437,0.0
1741737601.180000,295,-11.2790,3.7350,-7.4278,3.5131,-7.3052,-19.5184,-1.0474,-2.0611,-18.5778,-0.2824,-6.9308,10.5195,-15.8634,-4.4545,-14.0319,17.9652,0.0
1741737601.184000,296,-9.7383,-0.5535,-12.2676,8.1549,-5.1357,-16.2869,1.7924,-4.9393,-15.9320,3.6854,-8.2419,7.0497,-14.5592,-9.8361,-7.9097,18.7263,0.0
1741737601.188000,297,-7.4928,-4.1760,-11.5822,13.3951,-3.8736,-18.0262,1.3773,-5.3246,-15.1524,4.7214,-9.7647,-0.1128,-12.5145,-16.2504,-5.3571,21.9540,0.0
1741737601.192000,298,-7.8099,-11.5597,-9.0418,13.2445,-0.6759,-16.4493,7.0594,-6.7508,-12.6367,6.9951,-9.4479,-9.7908,-8.5718,-17.3644,-1.6552,19.1169,0.0
1741737601.196000,299,-7.2593,-11.8485,-2.9999,7.2214,2.1918,-16.2708,11.1112,-8.4916,-13.7257,2.2404,-9.3535,-17.2696,-5.7855,-16.3782,0.5737,15.9366,0.0
1741737601.200000,300,-7.9472,-9.5142,5.2612,0.6669,3.9483,-14.3259,14.6191,-8.9893,-11.7240,-1.8548,-10.2502,-19.9814,-1.6311,-8.0188,3.9270,13.9480,0.0
1741737601.204000,301,-8.1314,-0.2861,10.0587,-9.4317,2.8709,-10.9419,16.8757,-14.7116,-8.7107,-5.4770,-9.9884,-17.0222,-1.8967,0.1944,3.7067,10.8720,0.0
1741737601.208000,302,-2.9035,7.0042,10.3558,-15.6963,0.8725,-5.2991,14.7616,-15.4787,0.7075,-6.2564,-9.1440,-11.0605,-2.8328,11.1935,5.4160,3.0842,0.0
1741737601.212000,303,3.4853,11.1156,6.2348,-16.7886,-1.4528,0.7898,9.8946,-15.8651,9.4065,-3.9997,-9.8891,-5.5207,-0.3544,14.0561,9.1760,-2.3410,0.0
1741737601.216000,304,7.0740,6.9348,-3.4140,-15.2595,-4.8065,5.9364,3.9442,-16.5864,16.3113,1.3142,-10.0072,0.0436,0.9878,17.1325,11.1391,-2.5972,0.0
1741737601.220000,305,11.7698,-0.5286,-9.2859,-6.9775,-4.3330,10.8726,-3.0863,-14.3632,21.6007,5.2829,-6.9026,0.5697,0.9168,14.4567,11.5979,-8.2947,0.0
1741737601.224000,306,12.7976,-12.1007,-15.1138,0.1947,-5.7793,10.6834,-10.3673,-11.4487,25.6573,7.2097,-3.6958,-5.7231,1.9598,12.4807,12.4262,-12.4496,0.0
1741737601.228000,307,8.9477,-17.3402,-12.3496,7.2327,-3.2098,10.2357,-12.8809,-7.9269,22.5050,5.5023,3.3201,-12.9455,0.3843,5.2798,12.5857,-13.5977,0.0
1741737601.232000,308,9.8097,-22.2232,-8.1775,6.6059,2.4955,7.4304,-13.1052,-7.2187,17.4792,4.1776,6.6980,-19.1629,1.2942,-1.0453,6.1212,-16.7013,0.0
1741737601.236000,309,10.4157,-23.7298,-0.6187,2.8303,3.7876,6.9370,-10.4453,-2.9686,12.7204,0.0653,9.0538,-21.7254,2.0622,-2.4304,-1.0465,-18.9917,0.0
1741737601.240000,310,11.6600,-19.6222,6.5671,-5.2782,1.3716,6.8556,-4.3867,1.4519,3.8967,-6.1935,7.1395,-14.7118,1.6074,0.2060,-12.2763,-16.9269,0.0
1741737601.244000,311,10.4346,-13.4619,6.7725,-10.8082,-0.0759,8.4619,-2.2297,3.8245,-0.5042,-11.4171,6.9110,-10.0306,-4.5055,3.5834,-15.5250,-15.3639,0.0
1741737601.248000,312,9.4181,-5.1152,3.6668,-14.1056,-5.2401,7.7493,-4.1887,9.3452,-1.9825,-13.5393,6.4238,-0.5770,-1.0145,6.5216,-17.5680,-14.6543,0.0
1741737601.252000,313,5.2137,-1.3077,-0.2738,-11.9253,-8.7063,1.2348,-5.5153,12.7358,-3.1239,-15.0140,8.5399,5.3667,2.0151,1.2599,-17.4060,-11.8601,0.0
1741737601.256000,314,1.1786,-0.2799,-5.2238,-3.7551,-7.6468,-0.1765,-8.0286,14.8121,-4.6044,-17.9078,9.2108,9.4466,6.3491,-2.4280,-14.0193,-7.9956,0.0
1741737601.260000,315,-1.1519,-4.8773,-6.3093,2.4050,-8.1689,-2.7682,-10.3207,18.6743,-8.7714,-21.9607,6.5495,9.7844,10.5039,-5.6890,-7.4382,-6.7774,0.0
1741737601.264000,316,-5.9581,-6.9457,-8.4767,6.0945,-6.6119,-6.7521,-11.1437,18.8878,-13.0916,-22.0428,5.6114,8.0523,11.6024,-9.7334,-2.9084,-8.8763,0.0
1741737601.268000,317,-7.8532,-3.7500,-8.8371,8.7355,-6.6700,-11.8680,-8.4811,15.2951,-15.5254,-23.6019,1.1815,3.7855,5.5052,-13.4513,-0.8377,-5.4081,0.0
1741737601.272000,318,-7.7032,-0.9455,-9.8235,7.8351,-1.7659,-10.2194,-4.0448,6.1442,-17.1446,-22.4258,-2.3315,-2.0590,1.7617,-11.4475,-3.7178,-1.4181,0.0
1741737601.276000,319,-3.1542,3.3218,-6.4209,3.4521,-0.1588,-9.0731,-0.6430,-0.2120,-15.9720,-25.1521,-7.9412,0.0264,-2.3557,-8.8739,-6.0511,-0.9250,0.0
1741737601.280000,320,3.4114,6.7008,-8.1824,-0.7613,-0.4057,-8.4451,2.7716,-7.0804,-15.9023,-21.8283,-10.3672,0.3619,-4.7048,-7.8855,-10.1570,1.7968,0.0
1741737601.284000,321,7.7449,10.5509,-13.0611,-4.7177,-2.2227,-4.5726,4.8466,-9.5159,-13.9697,-13.9226,-11.9596,3.3464,-5.4898,-8.3318,-8.7781,1.1713,0.0
1741737601.288000,322,8.3911,7.0608,-19.0350,-5.4113,-2.7438,-9.8033,5.1417,-7.7698,-9.0081,-4.1949,-4.4411,3.8547,-3.8413,-4.8764,-7.2410,-2.7452,0.0
1741737601.292000,323,3.9961,7.7211,-19.6197,1.1967,-3.4127,-8.2136,2.7395,-9.7553,-4.3771,2.9392,0.2069,-1.9054,-0.1490,-4.2763,-5.8386,-7.2414,0.0
1741737601.296000,324,-1.5928,3.4243,-17.3871,4.5690,-3.2413,-8.5428,-3.3485,-5.5329,-4.4680,8.5913,7.1613,-7.0267,3.6889,-8.1377,-1.3387,-9.0286,0.0
1741737601.300000,325,-6.1032,-0.1095,-8.9452,5.9150,-1.9907,-6.3641,-4.1981,-4.6308,-2.8838,14.0418,6.4376,-8.6114,2.9291,-7.5764,5.2839,-11.3849,0.0
1741737601.304000,326,-9.4764,-2.9799,-3.4820,3.8151,-2.3723,0.7965,-6.0736,-2.5315,-5.6741,13.7367,2.5609,-12.2523,6.1093,-6.7498,6.5683,-11.0750,0.0
1741737601.308000,327,-11.1585,-3.0556,0.6297,1.8916,-2.5833,5.0001,-1.9918,-2.6054,-4.9646,16.1930,-2.1435,-11.2413,-2.4464,-5.4132,7.0669,-6.3639,0.0
1741737601.312000,328,-7.2001,-2.5552,1.6034,-0.5846,0.0711,6.0658,1.6063,-8.4547,-3.0883,14.1091,-8.4129,-6.5517,-12.5106,-2.4278,3.3957,-4.2713,0.0
1741737601.316000,329,-0.5656,1.0567,2.7642,0.5939,-1.2167,9.8727,2.7942,-13.5409,-0.0716,16.4741,-12.4046,-4.9770,-18.7812,0.4806,-2.0377,5.1497,0.0
1741737601.320000,330,7.0347,-1.3068,3.0770,4.2426,-1.6707,7.9983,4.0187,-17.2784,1.4428,15.4408,-10.0951,0.3100,-21.6663,2.3935,-3.7540,11.1134,0.0
1741737601.324000,331,11.8689,-2.8509,2.9722,3.2373,-2.5173,7.5366,1.4786,-13.1905,1.6979,13.4341,-6.7064,3.3239,-16.5310,2.6465,-2.0589,14.7204,0.0
1741737601.328000,332,13.5651,-5.1230,2.2272,6.1193,-1.8866,1.4591,2.6578,-5.8883,-1.3737,12.3577,2.5054,5.4192,-11.6508,-0.3554,0.5113,15.7159,0.0
1741737601.332000,333,8.1114,-8.6576,1.3985,9.2197,0.8578,-6.5531,2.1561,1.4397,0.6174,10.1019,10.3066,6.9611,-4.5297,-6.7974,4.4496,11.1106,0.0
1741737601.336000,334,0.0697,-14.0566,2.2401,13.1835,1.6269,-13.0432,5.6091,4.3471,-0.1285,6.7936,14.8706,-1.8022,-0.4749,-6.4699,8.2505,10.0345,0.0
1741737601.340000,335,-10.8941,-16.3877,1.9509,10.4315,1.4896,-14.1346,5.2591,2.8469,-3.7201,0.5914,13.0444,-5.1286,3.3723,-10.5742,5.8611,10.8328,0.0
1741737601.344000,336,-17.8032,-13.3485,4.3664,4.5522,4.3171,-6.7080,10.5930,2.4238,-2.9565,-7.8153,8.6099,-5.1159,6.1587,-4.5337,4.5674,10.2280,0.0
1741737601.348000,337,-13.1709,-6.9577,8.9975,-4.4362,4.8474,1.3414,14.3801,3.8932,-2.4085,-11.4243,1.8150,-1.4583,8.0754,-3.5347,7.6613,11.5267,0.0
1741737601.352000,338,-8.7590,-2.5611,5.5130,-9.3731,6.4073,9.5349,15.8512,-1.4117,1.5535,-12.7951,-7.7386,2.2232,5.0704,3.6442,6.5176,8.6804,0.0
1741737601.356000,339,-1.1167,2.2727,-0.9095,-13.1011,2.2626,18.8606,10.2760,-3.5844,6.6289,-14.2526,-12.7423,4.5177,5.6835,3.7558,12.5945,8.0694,0.0
1741737601.360000,340,3.3332,2.0764,-6.2626,-10.1214,1.3708,19.4347,5.1378,-2.7605,9.8239,-10.2205,-13.7069,4.4992,6.4585,2.5036,11.6366,4.8150,0.0
1741737601.364000,341,9.6737,1.0617,-6.9871,-10.9860,-0.7708,11.9517,-0.2675,-2.1717,11.2502,-12.1119,-8.3688,4.8972,10.3900,4.4633,11.9868,-0.7113,0.0
1741737601.368000,342,8.4406,-0.9963,-9.1519,-10.0275,-1.8817,9.3221,-5.9714,1.3260,15.0017,-11.2212,0.6797,2.5543,14.4571,5.8199,16.8644,-4.0337,0.0
1741737601.372000,343,3.1780,-4.2697,-8.9311,-10.0993,0.9574,2.0999,-7.1342,3.1220,14.7337,-9.0303,7.1652,0.5081,14.3392,4.2299,14.2674,-8.9277,0.0
1741737601.376000,344,2.5989,-0.9094,-9.2025,-11.1905,2.3530,-1.1248,-11.5787,2.1061,16.7487,-9.8537,11.5557,0.3350,12.4169,3.6003,10.7482,-16.1773,0.0
1741737601.380000,345,-1.3900,-2.4527,-7.9531,-12.0155,1.9273,-0.8826,-10.5026,2.5884,13.1228,-3.9458,7.3305,0.1730,8.4357,4.8379,9.6238,-19.4762,0.0
1741737601.384000,346,0.9569,-1.0320,-8.1437,-10.2310,-0.1558,6.0071,-11.0624,0.5378,10.3068,-3.5393,6.1690,-0.0410,4.6287,2.8896,3.1525,-18.2014,0.0
1741737601.388000,347,1.9439,-0.9086,-6.5195,-15.5967,-1.9441,7.8086,-14.7431,2.2189,4.6388,1.3285,3.1972,4.4452,-0.8740,2.1968,-5.0268,-15.9517,0.0
1741737601.392000,348,2.4318,-2.2780,-6.0159,-12.1545,-4.4357,11.2118,-13.6843,5.4352,3.5191,0.3357,3.2353,5.5287,-3.0703,4.2792,-8.2638,-14.2361,0.0
1741737601.396000,349,1.3388,0.3355,-7.5518,-11.4819,-2.7333,8.6320,-18.0198,8.3638,1.1345,2.9070,1.6719,7.1947,-2.7176,-1.0652,-8.5885,-12.5273,0.0
1741737601.400000,350,1.1709,-2.8965,-4.3831,-7.0161,-3.8412,4.7788,-16.5168,13.1064,-2.8186,0.9708,4.5783,5.6041,-1.6543,-6.0713,-10.1071,-12.9030,0.0
1741737601.404000,351,-2.8218,-5.4997,-0.6974,-1.7484,-3.4413,-1.7680,-15.9700,15.1026,-9.8181,2.6949,6.7437,3.7994,2.2867,-9.9116,-12.2411,-10.6768,0.0
1741737601.408000,352,-8.1584,-4.1267,3.2828,0.7010,-3.8206,-9.2889,-13.1731,15.8366,-14.5857,-1.2651,4.2460,2.8436,2.1657,-10.8253,-12.4247,-7.4357,0.0
1741737601.412000,353,-15.0750,-1.3364,5.6039,2.2613,-3.8891,-15.8687,-7.2302,15.3112,-17.8323,-2.3759,2.2937,4.1792,-1.2339,-9.3241,-14.6904,-2.8744,0.0
1741737601.416000,354,-16.6943,7.3776,5.1060,0.3035,-3.5731,-16.9155,-4.0606,13.0323,-20.8583,-4.6246,0.2035,8.3416,-6.0112,-7.5611,-10.8534,5.3430,0.0
1741737601.420000,355,-12.4456,10.9888,5.0849,1.2168,-3.3162,-21.4956,-2.6916,7.5028,-22.1244,-3.1276,-7.7753,9.7890,-8.8237,-8.1571,-12.0707,11.0241,0.0
1741737601.424000,356,-7.1852,10.5426,2.1911,4.9572,-3.3442,-16.1459,-0.4772,3.6124,-20.8109,-2.2583,-13.1143,10.0044,-7.8751,-10.5396,-11.0131,15.8966,0.0
1741737601.428000,357,-2.1606,6.6800,-0.5760,6.3352,-6.6967,-15.5005,3.6916,-2.6112,-18.6979,-0.7191,-17.8762,8.2878,-6.5481,-10.3783,-9.8637,18.1232,0.0
1741737601.432000,358,-0.0787,4.0222,-1.2208,8.0621,-7.4099,-16.9645,6.5486,-3.0589,-18.5203,-0.5808,-14.3322,3.3922,-4.9786,-8.6037,-6.9220,22.8354,0.0
1741737601.436000,359,-1.9119,6.5734,0.2893,12.6066,-2.0740,-18.5252,8.8888,-6.4094,-14.0544,-0.2574,-8.2098,-1.7876,-1.7459,-6.2313,-1.3132,20.3649,0.0
1741737601.440000,360,-6.1109,8.7323,1.7812,13.2026,1.1872,-18.6415,11.0081,-8.6389,-9.1497,1.8834,-1.2946,-4.5664,-1.7814,-7.1781,2.8854,20.4806,0.0
1741737601.444000,361,-5.7486,9.5584,5.6323,9.0242,2.2788,-19.4204,11.3540,-8.6264,-8.6787,3.3639,-1.8791,-6.9998,-0.3568,-3.3671,5.0163,15.0896,0.0
1741737601.448000,362,-3.9934,9.0230,4.7603,7.3518,0.9752,-11.4373,14.1425,-13.7716,-4.7377,5.6811,-7.7519,-7.2222,1.8701,2.5297,6.9006,13.5551,0.0
1741737601.452000,363,-1.7385,8.3259,3.2387,3.4672,-1.8079,-3.9774,16.1128,-15.3937,-2.2369,7.5941,-10.6780,-6.2450,-1.0532,6.5534,7.8953,12.2510,0.0
1741737601.456000,364,1.2305,4.0867,2.7831,0.2305,-4.4018,1.8781,18.0920,-16.2338,4.4481,11.0046,-12.5287,-9.6373,-0.7733,8.7444,10.0138,12.0160,0.0
1741737601.460000,365,4.5234,1.5470,1.4898,0.4948,-4.7465,7.6253,13.0960,-19.8419,10.4900,12.9210,-11.3230,-7.5919,-3.0754,9.6200,9.6245,12.2828,0.0
1741737601.464000,366,8.4618,-0.4317,2.0242,4.3094,-0.8556,10.0252,8.3868,-17.9286,15.5324,15.0926,-7.8060,-11.0879,-6.2475,9.3538,8.6732,10.3611,0.0
1741737601.468000,367,12.8190,-4.7547,0.9495,3.9978,-2.5145,13.1072,5.2452,-15.5742,15.2827,15.8250,-5.6025,-13.6294,-5.0673,7.7996,12.7696,5.6652,0.0
1741737601.472000,368,15.6426,-11.4195,5.0644,2.9449,-1.0781,14.0772,1.6925,-10.7019,14.4810,11.2395,-3.8800,-12.5529,-5.0847,10.2652,11.7594,-0.0960,0.0
1741737601.476000,369,17.0205,-13.9332,10.4984,-1.5012,-2.1578,13.0145,3.1730,-10.9244,13.8667,7.6172,1.9614,-14.5660,-4.3336,13.5448,9.9374,-5.7416,0.0
1741737601.480000,370,13.2356,-10.7755,13.4586,-6.0092,-3.0670,8.2501,0.7791,-2.1616,16.2444,3.9027,10.7187,-12.8610,-7.6454,15.2536,6.5478,-10.9197,0.0
1741737601.484000,371,8.9940,-4.4156,13.2376,-8.6002,-1.6017,6.6628,-1.4224,-0.6313,14.1558,-2.4549,9.6578,-7.2987,-7.8168,17.2589,4.6862,-13.3955,0.0
1741737601.488000,372,6.2364,-5.5169,11.3381,-8.1894,-4.1399,9.0287,-4.0581,0.7046,11.8664,-5.2132,11.6437,-2.5536,-7.9832,14.0754,0.2294,-15.7519,0.0
1741737601.492000,373,9.6790,-3.9537,4.1319,-11.3856,-3.5937,12.0221,-4.1756,3.2152,12.7580,-10.2627,7.3485,2.5088,-6.3573,14.8397,-2.0791,-15.8068,0.0
1741737601.496000,374,10.7469,-7.1677,-2.5306,-8.1559,-4.2828,14.1266,-9.2770,6.6323,13.4440,-13.6314,6.4858,5.9288,-4.1775,10.7279,-4.0510,-16.3753,0.0
1741737601.500000,375,8.5130,-8.0481,-6.3331,-6.0608,-6.0737,13.6471,-12.7333,7.7187,8.0799,-15.0614,6.7245,5.2941,1.7301,7.9474,-3.9110,-18.8308,0.0
1741737601.504000,376,6.4318,-9.4310,-7.9688,-2.9659,-5.8232,7.5332,-14.1866,10.1675,4.3694,-17.9833,12.0251,3.1675,2.3131,4.2445,-5.1582,-24.2343,0.0
1741737601.508000,377,1.0923,-9.2026,-8.7074,-2.4663,-3.9064,5.6885,-19.6707,13.6359,-1.1609,-17.4726,12.2813,1.4030,5.2518,-1.1630,-5.8376,-23.6679,0.0
1741737601.512000,378,-1.2435,-7.9224,-11.1364,-2.5829,-3.8999,1.2367,-18.6756,13.6888,-5.8161,-19.3251,9.7713,-0.9799,6.4134,-1.8003,-9.2272,-23.5636,0.0
1741737601.516000,379,-1.2252,-7.2504,-9.2506,-3.4031,-5.6712,2.1559,-15.7212,9.0940,-9.3038,-18.5482,7.0532,1.2542,3.6066,-3.5335,-11.3132,-17.7364,0.0
1741737601.520000,380,-4.2337,-3.6512,-9.8550,-6.5626,-5.7421,-3.0697,-13.2589,9.3779,-14.4647,-16.6371,6.9497,5.0287,3.1782,-1.5090,-14.6752,-15.0508,0.0
1741737601.524000,381,-5.6623,-0.5466,-10.6521,-6.1758,-7.5242,-6.9248,-12.3532,6.3939,-13.3876,-13.7316,5.0784,5.3407,2.6559,-3.3862,-14.7213,-10.1787,0.0
1741737601.528000,382,-4.0504,4.9352,-13.7861,-4.3432,-7.7936,-10.5600,-9.6236,3.9217,-14.7964,-9.7759,5.8282,8.2562,2.0188,-3.4013,-15.9802,-6.4598,0.0
1741737601.532000,383,-3.5183,7.3273,-15.5575,0.5019,-5.7553,-10.0974,-10.8334,4.4266,-13.4517,-5.3712,4.3417,7.7873,2.9325,-5.3299,-15.4523,-0.0727,0.0
1741737601.536000,384,-3.3611,5.8083,-15.0555,5.5971,-6.9468,-10.4805,-10.9100,4.0864,-16.9446,-1.4031,3.1698,9.5850,0.5331,-8.0621,-10.6157,3.4824,0.0
1741737601.540000,385,-3.7298,3.6069,-14.1799,12.5565,-7.6045,-13.7362,-7.3457,4.4732,-18.5809,2.6424,4.7283,9.7999,1.7146,-9.7092,-7.6680,11.5152,0.0
1741737601.544000,386,-7.1182,3.2541,-15.9856,14.1394,-5.1558,-15.7100,-3.1703,0.8867,-16.3554,5.7634,6.4249,4.1797,0.6664,-10.9760,-5.0989,14.0336,0.0
1741737601.548000,387,-12.0043,-1.6215,-16.1843,15.5609,0.8108,-19.1529,3.1799,1.1967,-16.7553,10.8056,4.4980,2.3123,-0.4770,-12.9438,-4.2886,20.0765,0.0
1741737601.552000,388,-11.8422,-1.6332,-12.3774,17.0772,2.1732,-18.2393,8.2059,-1.6719,-13.7132,14.0608,4.4118,2.1788,-2.5146,-15.9589,-1.8691,23.8881,0.0
1741737601.556000,389,-7.8174,-2.1114,-12.0446,18.4872,3.4851,-13.3997,17.6549,-5.7425,-12.0863,17.5031,-0.2395,-0.5185,-7.9472,-15.5846,-0.6916,28.0897,0.0
1741737601.560000,390,-2.9169,-4.7028,-8.1617,14.8081,5.8237,-9.2617,21.8796,-7.9523,-6.4236,22.8374,-4.5113,-6.7488,-5.7563,-13.2949,3.5686,32.1754,0.0
1741737601.564000,391,2.5828,-6.5315,-3.1337,15.0983,8.3341,-4.6429,24.7911,-7.2689,-3.9151,22.5679,-2.6037,-7.7454,-5.0593,-11.3889,7.6801,29.5632,0.0
1741737601.568000,392,5.6193,-6.7655,3.0006,8.7955,9.7931,-0.0717,24.2841,-6.1151,-0.3586,21.6000,-1.4445,-8.1436,-1.4628,-8.7920,11.6155,26.1626,0.0
1741737601.572000,393,8.3131,-7.0114,10.7426,3.6975,7.7500,0.5926,22.2342,-4.9151,8.1188,15.8930,1.2452,-6.2257,2.1969,-7.5174,20.0242,20.5982,0.0
1741737601.576000,394,8.2418,-6.3843,10.2221,1.0650,9.1297,4.1722,21.1226,-5.3603,13.0634,11.9321,2.2592,-6.8510,7.0833,0.1162,20.7274,13.9997,0.0
1741737601.580000,395,8.5533,-5.2343,14.4407,-2.9365,7.5349,5.5076,18.9100,-4.8065,21.3090,8.1218,6.0178,-5.7129,7.5205,4.2694,25.9165,5.7793,0.0
1741737601.584000,396,13.6201,2.3939,14.6841,-5.3315,7.6736,7.3393,15.8671,-2.6920,28.1297,1.6120,5.3675,-4.2605,9.3916,10.2531,27.1197,0.2732,0.0
1741737601.588000,397,12.9025,4.3030,10.6541,-2.8736,10.3835,14.9803,8.1413,-2.0473,32.3417,0.3332,8.0893,1.4746,8.3175,13.3391,25.6606,-7.7405,0.0
1741737601.592000,398,20.7785,0.4053,5.9998,-4.1520,7.7050,21.0763,5.7476,-3.6355,39.0746,-0.7311,5.7366,4.7600,9.4840,15.0356,21.8922,-10.6028,0.0
1741737601.596000,399,26.4628,-1.3882,1.8377,-1.6668,5.9335,24.6377,-0.8471,-1.4095,39.1413,0.1880,5.8701,6.5073,8.7560,13.4895,19.6566,-16.6962,0.0
1741737601.600000,400,29.9252,-6.2580,-2.4963,2.5330,4.3475,24.9162,-6.8819,0.4949,37.4099,-0.5946,7.3177,4.5904,6.8473,8.0619,14.5762,-22.4258,0.0
1741737601.604000,401,30.1642,-11.6177,-1.2102,4.0543,7.0636,25.4834,-7.9744,8.4192,33.5386,-3.3947,14.2989,-0.4121,11.3295,5.0076,8.2254,-26.3934,0.0
1741737601.608000,402,26.4651,-13.1265,0.4983,4.8324,8.5642,19.7008,-11.0430,11.5443,25.5168,-7.9432,18.5540,-4.4420,12.9318,0.6570,-0.4769,-27.6971,0.0
1741737601.612000,403,20.5726,-11.4481,6.5540,4.6175,7.9784,15.4283,-8.7406,15.0577,18.7526,-11.8017,23.6581,-5.1850,18.7816,-1.7858,-7.9822,-27.9369,0.0
1741737601.616000,404,15.2737,-5.3587,11.6407,0.9078,3.0183,9.8896,-9.9593,22.2770,8.2906,-17.7671,21.0823,-1.8630,16.9620,-0.9885,-13.4720,-27.9171,0.0
1741737601.620000,405,8.4888,6.7739,14.0758,-1.0688,1.9476,5.1014,-5.8576,26.6749,2.1115,-23.1067,18.3734,6.2860,17.7659,0.8969,-14.4100,-23.4733,0.0
1741737601.624000,406,6.1098,13.8595,9.4428,-1.9680,-2.5696,5.3979,-4.1842,28.5871,-2.9641,-23.8200,13.1204,15.2169,15.6029,4.6552,-16.5074,-18.3274,0.0
1741737601.628000,407,5.0470,16.7048,2.9790,2.2293,-3.5314,1.7816,-3.1210,24.7525,-7.2823,-25.2409,8.6467,20.9164,12.2717,3.4111,-18.8693,-10.4099,0.0
1741737601.632000,408,1.5757,19.3133,-3.0367,8.9418,-4.6009,-0.7660,-2.4411,22.1261,-9.9660,-22.2580,0.0609,25.4675,9.5256,-0.7265,-17.0872,-2.0390,0.0
1741737601.636000,409,1.2568,16.3438,-9.0304,17.4552,-5.2748,-2.7958,-0.9488,21.0399,-14.8087,-18.7033,-2.6113,25.6426,5.1756,-6.7161,-16.0134,5.3064,0.0
1741737601.640000,410,-1.3612,11.8573,-11.0204,25.9851,-3.1821,-8.4015,1.7459,16.4114,-17.8672,-16.0205,-5.0491,18.4659,1.9333,-13.5251,-11.2579,11.7412,0.0
1741737601.644000,411,-0.3973,11.9893,-9.1757,25.8012,-0.8767,-13.9892,7.1525,10.5859,-24.6359,-10.8889,-4.1795,12.1141,0.3679,-15.4909,-5.4972,18.1397,0.0
1741737601.648000,412,-2.9618,12.0315,-8.1424,25.7967,3.9964,-18.4086,12.3902,4.2793,-24.5111,-9.1329,-5.1711,5.8438,0.5208,-15.6398,-3.4775,19.8097,0.0
1741737601.652000,413,-3.5980,11.1049,-3.2089,18.6125,7.4746,-19.6746,22.0679,-1.8178,-25.3354,-4.7604,-7.1742,0.9569,-5.0629,-10.8146,-3.1874,20.6911,0.0
1741737601.656000,414,-6.9355,19.2882,-1.8098,7.7477,6.3749,-17.2101,25.8855,-8.4448,-22.8983,0.8097,-8.0767,0.1263,-9.0585,-5.4292,-3.1192,21.8635,0.0
1741737601.660000,415,-6.2031,23.1071,-1.3029,4.1900,5.3059,-9.9310,26.8902,-13.6380,-16.2732,5.0537,-11.5905,2.7597,-8.8684,2.7578,-0.5913,20.7048,0.0
1741737601.664000,416,-5.8172,22.2907,-1.1808,-2.9721,1.5470,-4.1802,24.3230,-15.3400,-6.5680,14.8870,-12.3239,1.9427,-9.5700,4.4293,7.8511,16.4319,0.0
1741737601.668000,417,-5.5206,18.9993,-5.0002,-5.3739,-0.5496,2.9893,19.2395,-16.3404,2.8686,23.3004,-12.7105,2.7923,-3.4132,8.8659,16.7373,12.3403,0.0
1741737601.672000,418,-6.2801,9.6368,-5.5922,-3.3076,-1.3643,10.6558,13.2641,-16.9004,9.7837,30.2689,-12.4569,0.1321,-3.7716,11.2159,19.6425,7.9536,0.0
1741737601.676000,419,-7.0704,4.7889,-4.7711,-2.4066,0.1263,17.7632,8.3996,-16.7556,13.2625,34.7631,-11.8890,-6.8630,-6.3340,11.2260,26.1535,5.4191,0.0
1741737601.680000,420,-3.5205,-0.9765,2.2690,-1.2928,1.2747,17.5705,2.9456,-18.0471,16.0494,36.7944,-9.9302,-11.6587,-9.4664,13.1414,27.0152,0.5359,0.0
1741737601.684000,421,-2.5161,-3.1051,7.9229,-2.6972,3.0843,22.3997,-1.1779,-17.6324,17.3936,37.1095,-8.1925,-14.8477,-11.0883,15.2588,23.0245,-1.6327,0.0
1741737601.688000,422,0.5066,-6.0039,14.0401,-10.0071,2.6427,22.2645,-3.5794,-16.8240,17.5418,33.3600,-3.2287,-11.4945,-10.2879,13.6324,21.0386,-0.9555,0.0
1741737601.692000,423,6.5366,-4.6986,16.5694,-14.3200,-1.0539,21.9960,-5.2758,-14.4722,16.0713,27.7340,-4.6340,-4.8337,-13.4560,15.2222,16.6047,-1.5785,0.0
1741737601.696000,424,5.7386,-6.6453,16.2573,-16.9612,0.5719,19.3574,-3.9397,-10.9778,17.8500,24.6643,-0.4983,-0.9411,-12.2787,20.0877,8.0293,1.0685,0.0
1741737601.700000,425,7.8334,-8.2632,12.7506,-13.4491,-2.8480,16.6080,-5.9700,-5.5597,16.1210,20.2304,5.4798,4.2788,-11.7852,17.8541,3.3919,4.7368,0.0
1741737601.704000,426,3.4178,-5.0874,7.9276,-8.6680,-1.8306,11.7090,-6.0309,0.2418,15.1353,17.8157,11.2793,5.8370,-5.4899,13.9286,1.6803,4.9463,0.0
1741737601.708000,427,-0.9795,-10.0460,7.4503,-4.7759,-0.9023,8.4886,-9.9925,9.4527,11.2918,13.5569,17.1560,11.1612,2.1575,6.8961,0.7910,4.7838,0.0
1741737601.712000,428,-8.2476,-13.4666,5.9899,-1.6340,0.5470,2.7962,-9.6926,17.7005,6.9173,4.7721,17.0944,9.5769,11.7033,2.0812,1.5063,3.6921,0.0
1741737601.716000,429,-15.4749,-12.8030,8.0681,-2.1643,0.2373,-1.5092,-8.0050,23.5653,-1.3945,-3.6544,13.7961,10.1003,16.5256,-5.4703,3.9637,6.0770,0.0
1741737601.720000,430,-19.8570,-12.1117,8.8792,-3.7176,-1.8386,-1.5366,-3.1303,24.1860,-5.8900,-11.8379,5.8784,8.5981,15.8912,-5.4968,5.9473,8.1474,0.0
1741737601.724000,431,-20.6610,-6.9468,10.8386,-3.3633,1.3836,-3.0361,0.6160,20.5848,-11.0252,-19.1952,1.8616,9.9243,13.0929,-6.8243,0.5439,14.3367,0.0
1741737601.728000,432,-16.2601,3.4120,10.7537,-10.7853,2.6754,-3.7176,3.8155,11.9323,-9.8434,-24.5484,-3.9678,10.4527,14.0400,-4.4545,-3.3267,18.3414,0.0
1741737601.732000,433,-11.8800,11.0876,8.3905,-14.9727,5.1697,-4.2478,9.1859,7.4303,-9.1242,-28.9662,-12.9395,17.1919,13.6799,0.4639,-2.6758,20.9062,0.0
1741737601.736000,434,-6.1662,14.9851,3.1145,-18.9551,-0.0373,-6.6232,6.2127,4.1523,-5.6191,-28.2006,-16.1796,22.7205,11.2046,2.2060,0.2889,20.9585,0.0
1741737601.740000,435,0.4966,18.6206,-2.8078,-17.0736,-1.8467,-8.5823,3.2648,1.3781,-2.0278,-23.5662,-12.1408,23.8871,11.2312,3.6543,4.9782,15.8372,0.0
1741737601.744000,436,-1.3351,16.7148,-10.4025,-11.4805,-2.5632,-12.1501,-1.1575,1.6405,1.3727,-17.6406,-9.8084,18.7274,10.9900,2.7270,6.3837,10.0481,0.0
1741737601.748000,437,-3.1944,12.5704,-14.2593,-6.0273,0.2019,-16.2820,-4.6197,-0.2309,4.3149,-10.0760,-3.8274,9.5808,10.7189,0.1027,9.1101,1.6038,0.0
1741737601.752000,438,-9.1368,8.6655,-9.1718,-5.9896,1.9351,-16.2762,-8.4028,-1.8525,5.2492,-6.0470,-1.2623,3.4542,11.6421,-0.6770,6.3870,-3.2153,0.0
1741737601.756000,439,-10.4916,7.8753,-6.6329,-11.4515,3.6662,-14.8845,-8.4368,-6.8617,6.0400,-3.5390,-1.8706,-4.1512,7.7745,2.3093,6.5196,-7.3003,0.0
1741737601.760000,440,-10.2785,8.7423,-0.8021,-12.2415,1.8483,-10.3051,-8.4438,-8.1917,4.8183,1.7729,-9.6745,-7.5818,0.7208,3.1567,2.8792,-12.2835,0.0
1741737601.764000,441,-8.4264,8.4114,1.8530,-13.9447,2.7390,-1.2332,-5.5099,-11.3280,3.0264,9.0530,-12.9413,-7.1794,-9.9957,6.1408,-3.0891,-14.2450,0.0
1741737601.768000,442,-3.3562,9.9313,2.2675,-16.2086,1.0393,4.5475,-6.7705,-15.0553,5.1203,11.9005,-16.1772,-8.9535,-17.4951,9.6092,-7.5828,-13.3754,0.0
1741737601.772000,443,2.5488,10.6782,6.8741,-12.8158,-5.0113,7.9292,-9.8058,-14.2791,3.5420,15.7889,-15.3420,-7.8071,-23.1627,9.8592,-13.7934,-10.5613,0.0
1741737601.776000,444,2.5594,9.8096,11.3813,-12.9707,-8.5839,5.1263,-12.7263,-7.6501,-0.1849,15.2474,-16.2511,-4.8854,-21.4921,12.6279,-18.1690,-9.5502,0.0
1741737601.780000,445,2.6991,6.4235,10.9994,-9.9804,-10.6858,-1.8510,-15.4500,-5.4114,-1.9044,15.5046,-12.1231,-2.1195,-22.0973,8.1177,-16.3858,-9.2325,0.0
1741737601.784000,446,-1.9357,0.7636,8.2909,-2.1740,-12.6625,-10.2926,-16.7418,-0.5837,-6.1338,14.7721,-6.7290,-1.9227,-21.9220,3.5652,-16.2677,-8.5312,0.0
1741737601.788000,447,-5.5881,-2.3824,9.1350,4.7683,-10.5220,-16.4596,-15.5667,1.9501,-12.6480,12.1919,-5.0600,-6.5533,-20.0109,-1.7107,-14.6464,-5.7086,0.0
1741737601.792000,448,-12.3533,-4.8758,10.2731,8.9359,-8.3824,-21.9615,-9.2534,-1.8699,-16.8469,9.4044,-5.3288,-10.9378,-22.1218,-2.9801,-16.3139,0.2841,0.0
1741737601.796000,449,-14.0911,-4.4962,14.1327,8.0013,-6.9237,-20.0931,-3.4101,-4.4054,-19.6825,2.5705,-7.1687,-12.7046,-22.8731,-2.0233,-18.4348,7.1268,0.0
1741737601.800000,450,-12.3270,-2.0474,13.9320,5.5951,-7.3851,-17.3683,-0.8071,-6.4061,-22.8442,-2.2043,-14.7662,-9.1043,-20.8611,-0.0773,-20.9958,13.1062,0.0
1741737601.804000,451,-10.2427,3.0099,13.6489,4.2773,-8.8266,-15.7570,5.5909,-9.3725,-25.0939,-6.3896,-19.3291,-5.2313,-20.4725,2.5443,-19.2013,19.2534,0.0
1741737601.808000,452,-7.0227,0.2707,9.9024,2.7596,-10.6991,-12.6325,7.2223,-12.3480,-26.2289,-6.5902,-19.2816,-5.3735,-20.2309,-0.2005,-16.1817,19.1764,0.0
1741737601.812000,453,-6.5953,-1.3896,3.7498,2.3387,-15.3281,-14.0058,10.1816,-12.7491,-21.3638,-11.1202,-19.4494,-9.0814,-12.0867,0.7042,-10.7284,20.0020,0.0
1741737601.816000,454,-7.9840,-2.3224,-0.7725,1.0599,-14.5781,-13.3007,10.8611,-14.6560,-20.5014,-11.3359,-15.7453,-9.0755,-4.6206,0.0143,-6.5557,20.8380,0.0
1741737601.820000,455,-13.1823,-0.6910,-3.0619,3.2258,-13.0111,-15.4912,12.2453,-14.3055,-12.6028,-12.6249,-11.0150,-12.9195,2.0144,5.0842,-3.1242,17.3505,0.0
1741737601.824000,456,-15.5278,-2.8411,-6.2118,-0.2406,-10.5544,-15.4879,10.9560,-12.2879,-7.4577,-9.5772,-8.2201,-12.8421,5.5203,5.5387,3.7402,11.4887,0.0
1741737601.828000,457,-14.5389,-4.3332,-9.6557,-1.9268,-9.1302,-12.3509,8.9471,-17.8153,-4.2928,-6.3063,-8.8684,-14.4022,2.7363,10.0886,9.7923,8.3423,0.0
1741737601.832000,458,-11.3005,-6.8451,-15.1745,-4.7678,-10.3215,-1.1381,5.6183,-19.8588,1.1697,-0.9568,-11.9825,-16.8456,0.6228,8.6196,12.1840,4.5822,0.0
1741737601.836000,459,-4.8184,-8.5324,-13.0156,-6.1915,-11.9850,8.5458,4.9582,-24.1990,2.9934,0.3283,-17.1658,-21.6954,-4.0947,8.3378,11.3078,-1.5002,0.0
1741737601.840000,460,1.1363,-11.7255,-10.2375,-12.6781,-10.4903,13.4157,2.0866,-24.7927,5.7372,3.3859,-13.7335,-19.8106,-6.6859,12.0944,9.8761,-1.9669,0.0
1741737601.844000,461,9.0396,-12.8974,-9.9364,-16.5795,-13.7352,15.3551,1.2738,-23.2843,13.1802,4.3790,-10.3192,-19.8466,-8.2955,13.7919,6.7560,-3.3213,0.0
1741737601.848000,462,11.3740,-13.6065,-10.9097,-19.3785,-10.9198,14.7419,-5.3501,-17.9425,17.5550,3.5421,-0.1577,-16.3953,-8.3809,14.6090,11.2769,-9.4224,0.0
1741737601.852000,463,10.7021,-13.3723,-7.8240,-19.0824,-10.1072,9.5076,-11.3413,-14.2424,18.4788,6.5668,5.9266,-14.0827,-7.6598,13.1099,7.7975,-15.7337,0.0
1741737601.856000,464,8.9642,-13.9065,-9.3629,-14.4464,-11.6326,8.3500,-17.4000,-6.0834,16.6119,3.7118,13.4555,-13.4882,-7.4642,11.0126,5.3501,-19.8857,0.0
1741737601.860000,465,8.3253,-17.1390,-7.7567,-14.3444,-12.0152,6.3362,-18.5974,-2.0665,15.1250,0.0773,15.6286,-8.3010,-3.7612,11.8263,3.7116,-25.9666,0.0
1741737601.864000,466,1.1355,-17.8675,-9.9605,-14.7456,-12.9196,4.1213,-20.1976,4.5770,11.7342,-0.4354,19.0823,-1.5175,-5.0703,11.7684,-0.9036,-25.7368,0.0
1741737601.868000,467,-0.5142,-16.4489,-13.1930,-13.7159,-13.1461,1.3763,-22.7906,9.3064,10.2096,-5.2336,19.9708,1.7258,-8.9382,3.7260,-4.6049,-25.7076,0.0
1741737601.872000,468,-4.4651,-18.3403,-15.3231,-8.7470,-9.3562,2.8984,-24.8134,10.4671,5.0474,-7.2614,16.5718,2.0944,-8.9142,-5.2918,-7.5367,-24.5838,0.0
1741737601.876000,469,-2.9370,-19.7207,-15.9653,-6.2784,-6.8035,4.3541,-23.7040,13.2435,1.0017,-9.4123,10.7873,2.0891,-8.4368,-11.8441,-12.3650,-23.6954,0.0
1741737601.880000,470,1.7042,-21.3020,-14.3052,-4.1012,-6.0263,3.7743,-19.8338,11.3831,-7.6280,-12.9559,9.9877,-0.9318,-2.7323,-16.2861,-15.1044,-16.3226,0.0
1741737601.884000,471,4.1902,-20.8270,-9.8449,-2.0335,-5.5723,-1.4310,-17.3610,15.2563,-12.0998,-19.4964,4.2669,0.8420,-3.6884,-18.5650,-15.4770,-12.0857,0.0
1741737601.888000,472,1.1343,-14.4003,-6.9400,-3.1195,-6.7659,-9.5715,-14.3789,15.5707,-14.6812,-22.8217,8.9331,3.8094,-2.3740,-17.1383,-18.8574,-10.0643,0.0
1741737601.892000,473,-2.4807,-2.5693,-8.9708,-3.4572,-6.0144,-17.2978,-10.3114,13.2440,-15.2699,-25.2323,10.8063,5.0336,1.2508,-19.0566,-17.1283,-7.9100,0.0
1741737601.896000,474,-4.2298,3.3633,-7.8676,-0.9858,-5.1269,-26.1926,-9.2983,13.8326,-18.0598,-26.6210,13.4315,6.6749,5.0540,-18.2051,-17.0490,-6.1749,0.0
1741737601.900000,475,-5.3207,8.0849,-10.3171,0.0956,-4.6399,-26.4811,-7.6773,8.1159,-21.9921,-22.9180,6.3035,6.7477,6.8273,-17.8724,-18.7295,-2.3136,0.0
1741737601.904000,476,-5.6998,7.8686,-13.9671,4.0109,-5.4832,-26.8632,-4.5152,5.2392,-15.7232,-24.1950,3.2697,8.6782,8.6787,-17.5932,-14.9628,0.5819,0.0
1741737601.908000,477,-4.9967,7.0287,-18.6244,10.1522,-6.3528,-24.7881,-0.2330,1.0689,-14.0950,-17.0536,-2.2205,8.7804,4.2329,-16.7438,-13.4323,4.9789,0.0
1741737601.912000,478,-2.5718,7.5557,-21.7657,17.5984,-3.3428,-21.2224,2.2260,-4.3691,-9.2489,-12.3300,-0.3475,6.1263,3.0365,-16.0466,-6.0213,10.2191,0.0
1741737601.916000,479,-2.9543,5.8776,-23.3377,24.9561,0.7445,-18.9605,4.0317,-10.6476,-6.0731,-4.0699,-4.5494,-0.2612,2.1046,-19.8853,-4.8401,13.6053,0.0
1741737601.920000,480,1.7946,4.3553,-18.1293,25.4476,6.5119,-13.3259,8.4558,-10.0459,-5.1559,1.5119,-7.6034,-6.8553,0.5011,-22.5393,-5.0166,16.1205,0.0
1741737601.924000,481,7.0870,-3.4467,-15.5380,24.3098,6.0212,-10.1030,13.3084,-13.7395,-6.4680,7.4852,-7.6416,-11.7370,-2.7068,-21.1002,-0.0838,18.2076,0.0
1741737601.928000,482,7.1648,-5.3430,-8.8536,21.5470,3.8063,-9.2785,17.9892,-13.5572,-4.3848,11.9215,-7.6978,-15.1806,-4.8298,-13.5309,-1.8612,15.9231,0.0
1741737601.932000,483,7.9679,-4.7395,-4.7248,17.5791,4.7159,-6.5124,24.9671,-14.0436,0.8710,12.9191,-2.6386,-15.7147,-5.9376,-11.6557,-0.3690,15.5872,0.0
1741737601.936000,484,6.1288,-4.1512,-0.8162,11.7563,5.4202,-7.0110,27.5416,-13.8473,5.4220,14.7808,-0.0075,-18.0318,-6.1690,-7.6995,3.0408,14.0903,0.0
1741737601.940000,485,6.2722,-2.5240,1.2649,12.9474,6.1814,-1.7204,27.4281,-13.2438,9.6580,15.5397,-0.1087,-17.2319,-7.1110,-3.1783,8.9580,12.3791,0.0
1741737601.944000,486,9.1045,-3.3783,6.6216,7.7389,4.4404,4.5433,25.3252,-10.8394,14.4689,11.9638,-0.8010,-14.1527,-5.4482,-0.2339,10.2298,9.6175,0.0
1741737601.948000,487,14.0451,-5.7741,4.6175,6.2238,3.4933,12.7020,20.3708,-10.1608,17.8539,10.0087,-1.6622,-10.2663,-5.2971,4.9682,16.8226,4.0284,0.0
1741737601.952000,488,17.5544,-7.1258,4.7344,3.7479,1.1155,17.1013,16.0464,-4.8526,22.8961,6.8649,-1.9355,-7.5850,-4.1904,7.1819,21.5271,2.5545,0.0
1741737601.956000,489,16.1623,-5.3113,4.0525,4.7477,2.2424,17.3119,10.0860,-3.6856,25.7947,5.5824,1.4358,-7.7430,-3.9771,8.3738,20.0659,-6.1330,0.0
1741737601.960000,490,17.0834,-8.4854,2.5095,4.6034,2.6589,20.7280,6.6866,-1.3875,27.6566,0.8606,5.2627,-6.3253,-1.8597,6.9246,20.0303,-11.1505,0.0
1741737601.964000,491,17.5990,-9.8580,0.1042,1.1217,4.2734,22.8734,3.7691,-2.3584,27.5755,-4.2934,6.9214,-6.3718,-0.4008,7.1274,15.8707,-15.1584,0.0
1741737601.968000,492,20.8992,-11.8991,-1.7632,0.0551,5.1477,22.1890,2.6227,-0.9009,25.4095,-8.2236,9.1737,-6.4054,3.4216,6.5484,10.3838,-19.7307,0.0
1741737601.972000,493,23.4256,-12.4187,-3.0337,-2.1936,2.8402,22.4954,-0.6305,3.7811,24.6612,-11.4927,12.2560,-4.0790,3.5827,6.3422,10.7856,-23.8978,0.0
1741737601.976000,494,20.5655,-11.2245,-3.2535,-4.6116,3.1666,21.9342,-2.9425,10.1086,22.1069,-12.5686,16.1133,-3.4336,8.4596,3.3361,6.5489,-30.5531,0.0
1741737601.980000,495,16.2887,-8.8362,-6.2684,-5.5432,0.8640,19.2761,-7.2738,13.8828,16.6469,-15.2999,16.1686,-1.8501,13.7842,1.8220,-0.3587,-34.1100,0.0
1741737601.984000,496,12.0960,-8.6923,-4.1866,-8.9605,-0.1330,20.5044,-9.0132,18.1176,13.2827,-17.0773,18.5507,-0.4326,17.5979,-1.2205,-2.5344,-34.3738,0.0
1741737601.988000,497,9.1915,-7.3520,-3.9922,-9.1280,-2.1635,17.4422,-10.4295,21.9812,5.9581,-18.0945,18.0677,2.6031,22.4421,-1.6330,-2.9608,-33.2107,0.0
1741737601.992000,498,2.2104,-1.0742,-5.2186,-7.9872,-4.6585,15.6732,-12.0537,23.6709,0.0051,-21.4846,17.6311,6.2621,22.4263,-3.3580,-4.4828,-26.8680,0.0
1741737601.996000,499,-1.4064,4.6396,-6.6085,-3.8480,-4.2691,10.4417,-13.9549,26.4428,-4.1360,-21.5329,15.0935,10.0673,20.7071,-3.2471,-6.9130,-22.7502,0.0
1741737602.000000,500,-5.3245,8.3019,-9.5788,0.3694,-3.2401,7.0298,-13.0810,23.2596,-6.9549,-17.7327,10.4647,15.5718,21.0115,-3.1861,-7.2232,-15.2776,1.0
1741737602.004000,501,-4.3424,11.7464,-10.2297,2.9420,-3.8444,3.3850,-11.1995,19.9418,-11.0312,-14.8010,9.5463,19.5384,16.4391,-9.3894,-10.9391,-8.9965,0.0
1741737602.008000,502,-2.6823,12.0330,-15.5765,5.0219,-4.4043,-2.3203,-8.9667,16.1540,-19.0722,-10.2447,1.8135,19.6224,11.1764,-10.4006,-10.8780,2.9983,0.0
1741737602.012000,503,-2.3262,12.1022,-17.6582,10.0984,-4.8263,-6.1832,-5.6908,14.0019,-20.9154,-6.7060,2.1345,21.4207,5.7586,-12.4112,-13.8299,10.9192,0.0
1741737602.016000,504,-2.0591,6.9054,-18.8789,13.7461,-0.9454,-11.3122,0.8701,11.2001,-23.3309,-0.9317,3.5939,19.2900,1.9533,-16.6264,-10.4836,16.2334,0.0
1741737602.020000,505,-8.3722,9.1592,-15.6139,17.6192,-0.4833,-19.1185,6.1569,7.4926,-25.7553,3.7800,3.3465,13.7635,2.4759,-19.6928,-7.4455,21.9870,0.0
1741737602.024000,506,-10.8575,7.1843,-11.4439,16.4314,5.3960,-22.6860,10.3326,4.8484,-25.1098,8.2888,3.5940,9.5341,2.2336,-23.1366,-2.3048,26.2910,0.0
1741737602.028000,507,-14.4903,7.2370,-5.6216,12.3463,5.9244,-20.4359,20.1318,3.0399,-23.4227,12.4562,4.2462,5.4648,2.5743,-21.2184,1.3417,29.5975,0.0
1741737602.032000,508,-15.7613,10.4266,-2.6504,8.0278,7.4856,-18.6106,23.9281,0.6301,-21.1321,12.5120,-0.2723,3.2253,2.2244,-13.5199,8.2005,29.3267,0.0
1741737602.036000,509,-12.7345,14.0011,2.9967,5.0615,8.0295,-12.0238,27.1403,-3.3709,-13.4555,18.0282,-2.2931,5.3991,-2.9872,-10.8439,10.3798,27.9775,0.0
1741737602.040000,510,-10.9647,17.2919,3.3050,0.1068,6.6660,-5.9009,25.8950,-6.8255,-8.1846,18.5069,-7.4682,5.2165,-3.3424,-1.6590,16.7370,24.9596,0.0
1741737602.044000,511,-7.0996,16.8292,6.7626,-1.0807,7.1531,3.1421,22.2894,-10.0188,0.5884,21.8921,-11.8686,4.9004,-3.0408,2.5954,22.6803,23.8281,0.0
1741737602.048000,512,0.0874,12.9951,6.9456,-3.0161,8.0427,9.2350,18.6654,-14.7884,11.2776,26.0860,-13.8531,5.8282,-4.5108,4.4987,28.2156,20.3296,0.0
1741737602.052000,513,5.9407,9.2837,5.4105,-5.7081,6.1331,11.4523,15.5625,-15.5961,17.7460,26.5437,-12.1959,0.7724,-1.5775,6.6117,27.1756,16.4256,0.0
1741737602.056000,514,10.0273,2.2041,7.7165,-4.8659,6.5687,13.9395,10.7899,-16.1537,23.7481,26.5706,-7.9998,-2.0695,-4.3715,8.7735,29.9737,11.5321,0.0
1741737602.060000,515,12.4333,0.1815,11.3442,-2.1734,8.9819,14.3593,7.8926,-14.4928,27.7788,24.3653,-4.4487,-5.6188,-7.3412,10.9365,27.8235,6.3922,0.0
1741737602.064000,516,13.8012,-0.9809,14.9306,-3.3211,9.9327,14.5305,5.1496,-14.8134,30.1813,21.2739,3.5932,-7.5340,-5.6529,13.8179,22.8205,-1.4619,0.0
1741737602.068000,517,13.7304,-0.9638,18.5065,-7.0525,10.2441,17.2833,2.6771,-11.0899,28.9846,15.1703,5.2036,-6.2607,-3.3723,14.7196,18.2706,-3.5665,0.0
1741737602.072000,518,16.3208,-2.2519,19.8362,-11.4930,7.8968,19.5829,-1.2206,-7.3921,26.4138,13.5970,6.4617,-4.0405,-2.3732,18.2462,11.8700,-10.2377,0.0
1741737602.076000,519,16.1179,-3.3177,17.4989,-12.0748,3.7830,17.1354,-2.4341,1.5198,24.9737,10.6672,9.8216,1.7082,0.3693,16.6831,6.5499,-10.2322,0.0
1741737602.080000,520,10.3213,-2.2289,12.6518,-6.9231,3.8938,20.4120,-5.8209,6.1422,22.7193,3.8360,10.3071,6.3322,3.6671,14.9204,3.1785,-12.6818,0.0
1741737602.084000,521,3.6425,-4.1315,10.4757,-4.0581,1.1637,16.6549,-8.5950,11.4983,19.2502,-0.4348,10.8425,5.0451,3.0921,11.4446,-0.8051,-10.8172,0.0
1741737602.088000,522,2.9672,-4.3307,10.4116,-3.3207,1.4798,14.6756,-7.2758,15.2127,11.7075,-4.9526,9.1603,6.4594,9.7265,7.4186,-6.4534,-8.9053,0.0
1741737602.092000,523,-0.3153,-5.5687,11.2014,-0.2313,1.2678,12.0524,-8.4421,21.5174,5.3133,-15.1473,6.1742,7.0821,11.4690,6.0727,-6.1804,-5.4854,0.0
1741737602.096000,524,-3.0794,-2.3041,13.3623,-1.1473,-0.0909,7.2354,-7.9081,20.9574,-3.0665,-20.0245,3.9699,8.2166,12.1968,5.6492,-6.5654,-1.6243,0.0
1741737602.100000,525,-2.8336,2.3562,11.7461,-1.1023,-2.2511,1.4719,-5.2459,21.0958,-8.5210,-24.4232,1.6109,11.7399,11.1752,2.2928,-5.0179,1.5459,0.0
1741737602.104000,526,-5.0029,8.1709,7.4899,-3.4321,-0.5407,-2.3870,-3.8615,16.7975,-14.2599,-25.2801,-2.1219,12.5164,6.0574,0.9990,-9.1264,4.5045,0.0
1741737602.108000,527,-4.7796,12.7735,1.8897,-2.8262,-4.4075,-7.3231,1.7024,10.7937,-16.7403,-28.7343,-4.4428,12.8259,5.9393,3.5902,-11.6758,8.3641,0.0
1741737602.112000,528,-5.6481,16.2705,-0.4069,-2.8415,-0.3186,-11.0786,1.7904,8.2379,-15.7339,-27.9254,-3.7948,12.0074,3.9882,3.6789,-10.4913,9.0786,0.0
1741737602.116000,529,-4.0160,17.9988,-6.0351,-5.0516,-3.1796,-12.2869,2.4245,6.3845,-15.0021,-23.5643,-5.4550,13.5469,5.5033,3.3235,-7.2920,10.8533,0.0
1741737602.120000,530,-4.6763,17.6542,-9.3648,-2.5774,-3.4206,-14.0514,1.1537,2.8683,-14.8865,-16.6553,-7.1200,13.2604,3.6786,3.7186,-3.5972,6.2583,0.0
1741737602.124000,531,-7.8204,14.2551,-14.3405,-2.6622,-2.4444,-15.0369,-0.7327,2.8302,-12.1131,-10.1750,-5.9311,7.6804,3.8192,2.1886,0.1841,3.4187,0.0
1741737602.128000,532,-10.2937,12.2728,-14.1771,-0.5153,-3.1110,-11.9337,-1.0864,-3.5248,-13.6074,-3.2596,-4.4245,1.4154,0.5498,1.0857,-0.7364,1.5184,0.0
1741737602.132000,533,-10.3228,9.6427,-11.8124,-0.7298,-1.6249,-8.6836,1.1282,-7.8796,-11.1071,5.2723,-6.7706,-2.7348,-2.3353,1.9459,1.6496,0.1155,0.0
1741737602.136000,534,-10.4202,7.8639,-7.3965,-3.9589,-1.9807,-4.2831,0.7540,-9.0455,-8.9385,9.2471,-8.1193,-8.0082,-3.0665,3.9988,1.4182,-3.3608,0.0
1741737602.140000,535,-7.8736,7.9123,-2.5457,-6.6236,-4.4274,0.7696,-0.3665,-12.6047,-7.6634,11.6363,-8.6646,-8.6144,-7.0424,4.2277,2.1050,-0.4493,0.0
1741737602.144000,536,-6.1102,8.6190,-2.0550,-10.4996,-5.0416,3.1957,-2.3284,-14.4706,-4.8855,17.2539,-10.9198,-8.6696,-10.8336,7.8356,0.2891,-2.0957,0.0
1741737602.148000,537,-2.9197,9.2516,-0.3067,-12.6731,-5.5156,4.5242,-2.6473,-16.7910,-1.7532,23.5698,-9.3671,-7.6003,-13.2543,9.2366,0.1235,-1.3961,0.0
1741737602.152000,538,3.3462,4.8176,-0.2975,-7.6075,-7.4684,6.6468,-6.9655,-14.0454,1.3947,26.5351,-10.7445,-6.0081,-14.7493,8.7877,-1.7713,1.3796,0.0
1741737602.156000,539,4.1886,-0.0019,2.1656,-3.1494,-8.6207,4.4819,-8.1150,-14.3289,2.8378,28.2043,-6.5787,-5.1223,-18.3437,9.2824,-2.4454,4.7065,0.0
1741737602.160000,540,4.5695,-3.7453,2.7689,1.4839,-6.8259,1.2475,-7.5360,-9.7708,1.5870,26.0640,-1.5143,-3.2036,-18.0986,5.9159,0.1351,5.0924,0.0
1741737602.164000,541,1.8212,-7.5707,6.5435,3.0534,-6.2846,-6.2641,-9.0968,-3.7142,-1.3757,26.7683,6.8355,-3.7154,-13.3671,4.3088,0.8359,6.9098,0.0
1741737602.168000,542,0.1646,-11.6930,6.5510,4.9320,-3.6314,-8.4504,-7.9151,-3.9147,-2.4082,22.3045,7.9200,-4.5088,-13.3948,-0.2537,-1.2893,8.0636,0.0
1741737602.172000,543,-1.4702,-13.7573,10.0334,7.3946,-5.4302,-7.1852,-4.8013,-1.7979,-5.9948,18.6893,7.0005,-7.7065,-13.2567,-3.6802,-3.3809,11.3378,0.0
1741737602.176000,544,-2.3472,-14.6234,11.4257,6.0905,-5.6405,-6.7380,2.9704,-1.2478,-8.5191,7.0594,4.5044,-7.7848,-11.4234,-1.5424,-4.4330,15.8493,0.0
1741737602.180000,545,-1.1046,-7.3120,12.8710,5.3545,-3.2513,-6.9150,7.2252,-2.7438,-8.2532,-1.6434,4.1059,-4.9502,-8.4379,0.0289,-6.8348,18.6494,0.0
1741737602.184000,546,-0.3446,-4.7965,13.6740,2.6143,-3.2369,-3.4384,10.8964,-2.8752,-5.1862,-6.6254,2.3229,-0.5557,-3.5594,-0.1780,-3.4551,21.0191,0.0
1741737602.188000,547,-0.5807,-1.7922,10.4156,0.6935,-0.8834,-2.9724,6.1418,2.8135,-3.1740,-10.4067,2.7534,2.3239,1.8537,1.0716,-1.4833,21.3181,0.0
1741737602.192000,548,2.5897,-1.6948,3.6423,-0.3524,-2.8389,-3.3623,7.9868,3.3193,-2.0923,-14.6206,2.2448,4.9964,4.0433,-0.5522,3.2867,13.9258,0.0
1741737602.196000,549,2.4672,-0.7741,-1.8020,1.8747,-3.2907,-3.1334,6.5344,1.2143,2.7536,-14.8672,1.5393,4.9022,11.3766,0.4335,6.7586,11.1784,0.0
1741737602.200000,550,2.2262,-4.9949,-6.4374,4.8030,-2.3631,-2.6870,8.7952,0.7198,4.3137,-15.1271,4.3127,-2.5497,14.8240,0.2522,9.5996,6.3882,0.0
1741737602.204000,551,0.5280,-5.4058,-6.9399,7.0096,2.1211,-2.5809,7.2412,-1.5871,8.2097,-16.2787,3.8435,-4.7145,16.6485,-1.5346,11.7625,3.8926,0.0
1741737602.208000,552,3.6501,-4.2192,-4.6043,0.7154,3.2163,-3.0770,6.0465,-1.3962,11.7740,-15.0589,5.1723,-7.9234,18.5370,-0.9268,12.2246,-0.9871,0.0
1741737602.212000,553,8.6940,-1.0694,-2.6257,-3.4318,5.6526,3.9563,3.7214,-5.5089,13.1784,-14.5540,4.3669,-6.9540,12.1727,2.8576,11.8253,-6.3985,0.0
1741737602.216000,554,14.9494,-1.3243,-2.8600,-5.4521,5.5469,9.6923,2.2491,-3.6650,12.8895,-12.3408,-0.2194,-7.2379,8.6036,6.7070,10.4446,-9.9224,0.0
1741737602.220000,555,18.0911,-0.3334,-2.4030,-7.8381,-0.7393,11.0460,-1.1703,-6.8938,13.3940,-12.3520,2.8039,-5.5564,6.0549,8.0619,5.2996,-15.1102,0.0
1741737602.224000,556,19.4049,4.8588,-4.7165,-8.7575,-0.1272,13.0071,-0.2570,-3.4800,16.8996,-10.2037,6.1898,-3.4289,5.6551,10.5522,1.5263,-15.9927,0.0
1741737602.228000,557,16.2602,5.2857,-4.0823,-8.2108,-1.0799,9.2889,-6.6491,-1.4382,17.5548,-8.3698,11.3705,-0.1885,4.9687,12.9382,-0.8071,-19.5914,0.0
1741737602.232000,558,12.0216,5.0709,-8.1551,-4.9972,-0.9249,6.2374,-11.6611,5.0729,17.1587,-6.1505,15.6118,3.7153,5.4953,10.1504,-4.8286,-23.3708,0.0
1741737602.236000,559,9.5322,-0.7396,-10.2114,0.1734,0.1792,4.0443,-13.9835,9.6656,13.5104,-0.7686,16.3947,3.6352,4.6635,4.4472,-3.2145,-22.4825,0.0
1741737602.240000,560,7.9041,-4.5947,-15.0135,5.5389,-2.1327,4.3651,-14.3946,11.4255,8.5262,3.3538,17.5638,3.5700,2.9996,-0.9034,-5.2068,-21.9881,0.0
1741737602.244000,561,5.4503,-10.1620,-12.6296,10.4037,-0.6422,4.0365,-13.9318,12.7838,0.8157,5.5296,14.0487,-3.1433,-2.9719,-5.3424,-7.9514,-19.2800,0.0
1741737602.248000,562,3.4054,-12.0668,-9.8684,11.3307,0.3435,3.3573,-9.1266,13.1865,-2.9993,3.6258,8.2875,-4.6997,-4.4520,-8.9538,-14.3881,-15.2495,0.0
1741737602.252000,563,-1.7059,-9.1180,-4.3923,11.1012,1.7309,0.1457,-5.2920,12.5444,-11.2754,1.5403,7.1695,-3.6344,-8.4752,-9.8119,-17.3628,-7.9629,0.0
1741737602.256000,564,2.6557,-6.6018,1.9743,8.4166,1.6801,0.1522,-0.0584,10.9476,-18.6334,-2.0711,0.3045,-1.8478,-8.7682,-12.9498,-17.8233,-1.6041,0.0
1741737602.260000,565,-0.5673,-0.7505,3.8606,6.4486,0.3605,-5.4330,5.2890,11.4767,-21.1453,-5.4890,-0.7296,2.1243,-10.5109,-13.2868,-17.3205,5.3574,0.0
1741737602.264000,566,0.1929,2.7088,5.8295,3.7811,-0.3566,-8.6647,6.7061,8.4655,-21.2525,-7.6987,-1.0076,4.8081,-7.8071,-8.9998,-16.1303,6.5009,0.0
1741737602.268000,567,0.0461,7.7368,4.9298,5.3224,-4.3696,-13.5241,8.1637,5.9569,-17.9898,-8.8172,2.6707,8.7747,-3.2197,-7.8767,-11.5191,8.8582,0.0
1741737602.272000,568,-5.2036,11.0685,1.5934,6.1577,-2.1067,-17.7395,10.4759,5.6858,-14.7203,-9.6208,4.9728,11.1143,0.6317,-5.2826,-4.7638,11.7354,0.0
1741737602.276000,569,-7.4865,13.7489,-4.3101,10.2067,0.7763,-16.6329,7.6228,3.3010,-12.1911,-9.2474,1.9478,11.8075,2.6983,-4.2038,2.3068,11.6698,0.0
1741737602.280000,570,-7.2408,9.0561,-9.4514,13.3469,-0.2249,-13.2325,7.8707,0.9297,-8.0039,-1.9893,-0.9582,10.1892,4.2814,-3.5645,6.7232,10.2822,0.0
1741737602.284000,571,-6.3386,4.8254,-15.6107,15.6946,-0.0035,-8.3985,6.9877,-4.3751,-2.6844,4.0458,-4.1189,3.9281,2.7279,-10.0582,10.1683,11.1205,0.0
1741737602.288000,572,-4.6520,-2.0890,-15.5487,17.8881,0.5492,-1.7357,9.3648,-10.7759,-3.5970,7.9215,-7.1178,-3.4836,3.3190,-11.8542,9.4414,11.3024,0.0
1741737602.292000,573,1.8967,-5.3555,-11.3665,12.6424,4.5037,5.5239,13.4141,-12.7513,0.4746,10.0756,-8.9698,-10.0900,3.5687,-9.7603,9.1523,12.8696,0.0
1741737602.296000,574,3.2650,-6.7539,-8.0391,6.5562,6.7726,8.8840,16.1421,-15.1122,1.6195,12.4582,-9.1351,-14.2194,1.4628,-5.6688,9.5791,10.5590,0.0
1741737602.300000,575,6.5168,-2.1061,-1.0973,2.7382,8.9902,11.1523,17.0515,-15.1819,4.7560,14.7315,-1.9284,-11.3004,1.3325,-0.0441,9.8763,9.2096,0.0
1741737602.304000,576,9.6201,1.5112,1.5912,-2.2467,7.3821,13.8309,15.6216,-11.9145,10.2985,16.0431,-0.0480,-10.4835,3.1149,3.8445,11.1442,6.6904,0.0
1741737602.308000,577,10.1003,-1.0914,4.6420,-6.7975,5.6962,13.4344,13.2094,-8.7389,12.9839,17.0369,3.8281,-8.1096,4.3337,6.4762,14.0898,1.4688,0.0
1741737602.312000,578,7.2891,-0.8193,5.5311,-7.0215,0.3808,15.2442,7.2009,-2.9386,17.3482,17.4251,5.7063,-1.3217,6.1903,9.8124,14.3964,-1.6236,0.0
1741737602.316000,579,2.5236,-2.6712,5.5413,-8.0022,-1.4394,11.7280,2.9610,1.3366,18.7475,15.8530,10.2932,0.9454,7.6638,10.4626,17.1282,0.4987,0.0
1741737602.320000,580,2.4956,-5.7046,1.1841,-4.8347,0.6305,12.3904,0.1011,5.0531,22.0884,12.6203,8.8158,7.2795,5.7229,9.7811,17.4352,-1.5145,0.0
1741737602.324000,581,0.0084,-5.7592,3.5324,1.6454,2.5793,13.7735,-2.2517,5.1108,20.4598,8.2701,7.2635,5.4613,4.0373,7.7933,17.0621,-1.5231,0.0
1741737602.328000,582,3.0451,-5.6892,2.4717,4.4691,6.3078,17.0448,-2.3359,6.1098,17.5757,7.7462,6.0337,3.9992,2.2616,2.5171,13.5079,0.6554,0.0
1741737602.332000,583,6.0615,-5.5845,3.9957,1.3927,7.2143,17.6857,-3.1031,5.7153,15.8720,1.9789,5.0556,4.3002,1.7052,3.7066,9.9141,-0.7946,0.0
1741737602.336000,584,10.7854,-9.0539,7.9243,-4.7445,6.2435,15.4378,0.0256,6.9753,9.2789,-2.8336,3.2474,7.8705,-0.6309,0.4098,4.0062,1.4851,0.0
1741737602.340000,585,9.1014,-5.7684,5.3100,-6.3718,4.3041,9.9781,0.7468,9.1807,6.6433,-6.5897,6.7542,8.3063,0.9559,-0.8496,0.0216,-0.7301,0.0
1741737602.344000,586,4.8617,-4.7662,3.2432,-7.6844,6.0670,4.4997,3.3231,10.2716,5.9330,-11.1454,7.7469,9.3934,3.3513,-0.9684,-1.4192,-1.0854,0.0
1741737602.348000,587,-1.0338,-1.4658,1.7121,-8.4678,6.4809,-2.1534,2.1330,14.6606,2.2965,-15.1778,10.3589,10.0259,6.9760,-4.3077,-2.2532,-6.5153,0.0
1741737602.352000,588,-5.0701,2.1035,-1.1620,-8.1698,6.4334,-5.5637,0.8403,16.4418,2.2999,-15.9718,9.3880,10.3172,14.5365,-4.4206,-4.2734,-7.3630,0.0
1741737602.356000,589,-9.5229,6.0364,0.4184,-11.5640,3.4311,-2.7806,-1.2433,18.9411,-1.2878,-17.3591,6.2757,13.6375,19.1556,-2.2244,-2.1251,-9.4478,0.0
1741737602.360000,590,-13.9190,8.1492,1.7316,-10.1478,1.1636,0.1549,-4.6650,16.9380,-3.0702,-16.5460,1.7292,13.2810,20.2359,-2.4992,2.8327,-8.9757,0.0
1741737602.364000,591,-13.0446,12.0752,-0.0384,-12.4239,4.0252,-0.2460,-4.2571,14.7020,-5.3157,-16.5260,-4.1755,12.9864,16.4705,1.8091,3.3324,-9.8173,0.0
1741737602.368000,592,-11.8213,15.7248,1.0349,-7.7453,2.7718,0.6610,-7.7016,10.5946,-3.2147,-12.8829,-9.4093,11.8835,12.8345,0.5711,1.3890,-6.9948,0.0
1741737602.372000,593,-7.3747,15.7508,-1.0803,-8.8004,3.5926,4.0540,-8.5231,5.0731,-5.0841,-7.4843,-12.8970,10.5417,9.7899,1.0111,-0.0281,-5.7996,0.0
1741737602.376000,594,-2.8528,15.9323,-3.7483,-6.5732,1.8933,3.8137,-8.8555,-0.6109,-6.1774,-7.6113,-13.9906,8.9987,4.7222,2.1346,-3.5818,-1.6165,0.0
1741737602.380000,595,1.2567,13.3111,-4.4347,-5.5150,0.6121,-0.1419,-6.9339,-2.2942,-6.1917,0.4257,-13.3008,8.3439,-3.1203,-0.4908,-7.3784,1.6162,0.0
1741737602.384000,596,0.3349,9.9781,-4.5658,-1.1587,0.1495,-4.8819,-5.1983,-3.9348,-7.2889,4.5369,-10.7176,6.3298,-3.2322,0.1758,-7.6163,2.6164,0.0
1741737602.388000,597,-5.6104,8.1816,-3.8558,0.9893,0.7894,-9.8333,-5.3631,-5.9618,-9.9416,11.2475,-6.3099,4.2982,-6.4839,-1.9687,-9.5664,4.0935,0.0
1741737602.392000,598,-7.6880,9.2695,-3.4959,5.4830,1.7180,-14.0184,-0.2016,-2.7092,-11.3450,15.7188,-2.4204,0.1077,-7.5956,-1.7439,-9.4745,3.3505,0.0
1741737602.396000,599,-10.5752,4.6880,-0.7576,3.9538,4.1405,-17.3909,-2.0918,-2.4371,-15.7083,15.4583,-2.4543,-3.3227,-5.9901,-3.5064,-8.7136,5.0247,0.0
1741737602.400000,600,-15.2799,5.2178,4.5260,3.0567,-0.1006,-15.5194,1.8973,-0.0550,-17.1678,17.9674,-8.9009,-4.0985,-7.1155,-6.1851,-7.6237,9.0113,0.0
1741737602.404000,601,-18.6978,1.6568,8.2570,-1.4224,-0.5247,-10.4056,5.4315,0.5180,-17.0039,17.1176,-10.4395,-3.8704,-9.6240,-2.1551,-6.0026,12.8859,0.0
1741737602.408000,602,-18.0778,3.3592,10.3473,-1.4531,-1.0798,-5.9074,9.6551,-5.1480,-17.8999,16.6340,-14.1404,-4.5469,-9.8400,-0.2182,-5.6079,19.1091,0.0
1741737602.412000,603,-18.1633,7.7219,11.8858,-0.3781,-0.8919,-0.9535,11.4529,-5.8138,-14.8649,15.9863,-18.3105,-5.6566,-11.5976,0.5965,-2.7533,20.0464,0.0
1741737602.416000,604,-13.1405,7.9961,11.3157,-1.5562,-0.6911,-0.0406,9.0668,-8.7352,-13.3302,13.1983,-22.1591,-6.2725,-11.8012,5.5081,-0.5143,22.1797,0.0
1741737602.420000,605,-5.6767,7.3484,18.5828,-4.0229,-0.8933,0.8798,11.3803,-12.6192,-9.6101,9.7377,-23.6702,-4.4134,-14.3659,6.0180,2.1278,23.7009,0.0
1741737602.424000,606,-2.9103,5.0982,13.4367,-4.8625,-2.8438,-0.0800,10.9594,-12.1312,-5.1311,6.9564,-20.9557,-2.8860,-14.0019,9.9921,7.0210,21.1171,0.0
1741737602.428000,607,0.3599,3.2911,11.6670,-5.1923,-4.6285,-4.2930,9.3178,-14.4507,-1.4911,5.6779,-14.8548,-4.1514,-11.0293,9.1937,9.9291,15.5935,0.0
1741737602.432000,608,-2.3440,3.1984,8.2225,-4.5379,-5.7400,-4.8597,4.2587,-14.7570,0.9677,6.3601,-10.0826,-6.5119,-8.5786,9.7170,11.7883,13.3248,0.0
1741737602.436000,609,-4.3079,-3.4033,6.4920,-5.4277,-2.9965,-6.2035,4.4210,-15.4517,4.9087,4.8808,-7.7290,-6.8300,-5.9877,11.4161,10.2175,8.2409,0.0
1741737602.440000,610,-5.6393,-3.7891,3.7633,-10.0903,-2.5634,-0.1189,1.9159,-14.1103,5.4183,0.4003,-6.3119,-11.2575,-3.1993,12.6316,8.5130,1.9990,0.0
1741737602.444000,611,-1.6183,-9.0865,3.7142,-10.6028,-2.6897,3.4854,2.1802,-13.8694,8.8057,-1.8143,-6.1174,-12.3559,-0.9165,15.4118,7.6044,-0.7526,0.0
1741737602.448000,612,-3.8457,-6.4026,2.9976,-14.0173,-3.9278,9.1421,0.0376,-10.0796,11.6291,-1.1411,-4.1626,-11.6952,-2.3134,15.1972,7.3345,-8.5093,0.0
1741737602.452000,613,-2.7011,-6.2952,1.6875,-13.6124,-3.9953,13.4502,-7.7139,-10.2901,11.3461,-1.1637,-3.2366,-10.8915,-2.3410,14.5224,5.1050,-11.7856,0.0
1741737602.456000,614,-1.9421,-7.5263,2.4227,-18.6098,-6.9463,15.3520,-8.3926,-8.1726,9.7921,-4.6251,-3.3932,-12.0206,0.0716,14.1550,0.4786,-15.1307,0.0
1741737602.460000,615,1.3051,-7.2728,-0.0263,-18.7109,-10.5827,15.3653,-15.1607,-1.9907,8.9630,-5.8682,-1.6834,-7.3164,2.6231,12.1528,-0.3798,-16.7597,0.0
1741737602.464000,616,-1.1757,-10.4794,-1.5884,-19.0109,-11.5124,12.5446,-16.8655,-1.6071,5.8022,-6.1127,-1.3681,-5.0101,2.0796,12.3937,-2.0654,-18.5462,0.0
1741737602.468000,617,-4.8367,-6.2967,-3.2129,-15.4873,-11.2868,7.2230,-18.4971,-1.2827,4.7565,-9.5316,2.1584,-3.2927,-2.5657,11.9695,-5.3599,-16.8358,0.0
1741737602.472000,618,-6.5315,-8.0155,-3.6910,-13.1415,-11.1687,2.6669,-22.3725,3.7152,0.6844,-11.5465,1.7501,-2.9587,-5.0541,7.4551,-9.0261,-15.3330,0.0
1741737602.476000,619,-4.3108,-5.1871,-4.0102,-10.9726,-11.2224,-1.6885,-19.9990,3.3642,-4.9619,-12.9580,3.9658,-0.9968,-8.4294,6.3389,-11.2321,-13.5586,0.0
1741737602.480000,620,-2.5099,-6.6859,-3.8162,-10.5538,-10.1455,-6.9127,-20.7852,1.6971,-7.5625,-14.1576,1.9957,1.9917,-6.6252,3.5842,-13.3067,-7.8765,0.0
1741737602.484000,621,-4.8421,-6.7039,-8.7999,-8.9313,-12.3181,-11.4828,-20.7002,2.6689,-13.5147,-15.9648,1.6912,4.9369,-8.9342,-0.6952,-15.5880,-8.7586,0.0
1741737602.488000,622,-5.8537,-8.4023,-8.6420,-8.1202,-11.6177,-14.8137,-13.9478,3.1360,-16.1950,-12.2970,2.7301,5.9201,-10.5240,-1.5798,-18.4410,-3.8526,0.0
1741737602.492000,623,-9.1476,-6.8416,-10.9112,-3.0741,-12.9864,-17.7824,-16.5875,3.1778,-16.1357,-11.5062,2.0130,2.6184,-14.3815,-7.1414,-19.0722,0.0683,0.0
1741737602.496000,624,-10.7014,-4.0783,-10.8738,0.2836,-11.3516,-22.1865,-11.0396,3.9213,-22.8964,-12.4218,2.7467,0.1742,-10.7391,-7.8840,-17.5427,3.2997,0.0
1741737602.500000,625,-15.6710,-3.9234,-11.7554,-0.3448,-7.4832,-23.1154,-8.9136,0.5009,-20.7923,-12.3734,0.4146,-1.8272,-7.3218,-12.1680,-17.3120,2.6955,0.0
1741737602.504000,626,-15.6678,-4.4966,-8.8308,-3.0801,-6.6958,-20.1792,-5.2959,0.1099,-23.2912,-13.4448,-2.7106,-2.1638,-6.8695,-10.3339,-13.8992,2.6839,0.0
1741737602.508000,627,-15.7510,-3.0557,-12.2597,-4.6184,-9.0046,-18.7369,-4.2092,-1.9679,-23.0589,-8.3601,-5.2003,1.5051,-6.2434,-10.3654,-10.5787,2.4379,0.0
1741737602.512000,628,-13.8835,-0.3944,-13.4429,-0.4454,-8.9561,-18.7050,-1.3884,-2.4051,-17.7070,-3.1035,-7.2527,-3.5196,-8.4455,-8.1837,-6.2381,5.9729,0.0
1741737602.516000,629,-13.1705,1.0119,-11.4990,-2.9195,-7.7146,-16.5761,-3.0266,-9.5611,-15.5603,-1.0319,-9.7210,-7.9860,-9.0835,-7.4987,-5.4421,5.6003,0.0
1741737602.520000,630,-10.6070,-0.6967,-12.5599,0.8185,-4.4801,-12.9228,-2.6793,-13.8699,-12.0521,0.0886,-9.8749,-8.8335,-9.5746,-7.1293,-4.7302,7.7368,0.0
1741737602.524000,631,-2.5899,-4.4858,-9.0413,-0.1441,-5.0195,-10.6196,-1.5516,-13.7068,-6.5876,5.6922,-9.0212,-7.9626,-4.8931,-6.6027,-1.9483,7.9780,0.0
1741737602.528000,632,0.6733,-8.6373,-8.0861,0.2419,-4.9104,-9.3665,0.6676,-13.4039,-2.7676,5.3960,-7.3758,-11.4819,-6.6711,-5.1917,-1.5857,7.9327,0.0
1741737602.532000,633,3.6059,-8.1626,-9.2458,4.5314,-5.9529,-11.1649,1.8901,-14.4575,0.8094,9.1189,-3.2619,-12.7913,-7.4394,-2.2005,3.4820,6.4795,0.0
1741737602.536000,634,4.6571,-8.7402,-7.7519,7.3949,-3.3810,-10.2555,2.0709,-15.3902,2.2536,13.9438,1.1335,-15.9748,-10.0095,-5.7265,1.5109,6.3336,0.0
1741737602.540000,635,5.6437,-9.8525,-3.8816,8.2114,-0.4024,-7.1217,2.2443,-13.9691,6.2844,11.5415,3.0063,-19.1720,-8.8366,-2.7919,0.6608,3.0777,0.0
1741737602.544000,636,7.5845,-12.5708,-0.1201,5.7541,0.0649,-7.5341,6.0720,-12.6293,7.4149,9.6845,3.2968,-16.6435,-5.3539,-0.8640,-0.4899,3.6906,0.0
1741737602.548000,637,9.7886,-12.9231,1.9434,2.7770,-3.9439,-0.9391,5.1909,-7.8954,9.2459,5.8360,6.7911,-12.6849,-4.6410,-0.3798,1.3556,4.8220,0.0
1741737602.552000,638,9.0504,-13.9049,0.7301,2.8204,-1.1025,1.4543,6.1228,-2.2496,10.6343,6.9693,6.7723,-10.9667,-2.2425,-0.2304,1.2144,2.4201,0.0
1741737602.556000,639,8.9525,-15.9702,-0.7964,5.5933,-0.5532,1.2991,5.5664,-1.9844,14.2472,5.7434,8.6742,-11.9622,0.2263,-1.3434,4.1043,0.7408,0.0
1741737602.560000,640,9.0783,-16.2100,-3.5881,5.7163,-2.4650,2.9549,6.3480,-0.9810,13.1699,-1.1687,7.8867,-12.3643,1.2938,-3.0856,0.2223,-3.3419,0.0
1741737602.564000,641,11.7765,-14.8431,-1.5342,6.8856,1.8902,5.8907,3.6968,2.6882,12.0017,-7.4232,7.8143,-11.5628,2.6845,-2.0121,2.4041,-4.5774,0.0
1741737602.568000,642,15.5399,-16.0205,1.2038,3.7481,0.5200,8.9793,4.8322,7.0397,12.2381,-11.2607,7.0742,-8.5422,6.0365,-1.4002,2.9377,-5.4367,0.0
1741737602.572000,643,15.4318,-12.9142,1.5920,5.0234,0.9405,8.5225,3.2007,9.3563,13.4758,-14.2077,9.5965,-4.5877,7.6627,-1.3544,4.0340,-6.7562,0.0
1741737602.576000,644,16.8089,-8.6507,-1.7477,-0.5006,1.0996,6.7557,3.8644,10.5099,12.4633,-14.7574,9.4328,-3.2399,6.9520,-3.5399,4.6608,-10.5155,0.0
1741737602.580000,645,18.3618,-9.3565,-4.7127,1.3634,0.7944,7.6860,0.9118,10.8775,13.1503,-17.8867,8.7561,-3.5350,10.1845,-5.5139,3.0555,-15.9012,0.0
1741737602.584000,646,18.2226,-6.0154,-4.5111,1.2735,1.1576,5.6132,-0.7602,8.3023,11.6473,-19.7896,9.2176,-4.4827,9.7637,-2.6264,-0.2480,-19.4266,0.0
1741737602.588000,647,17.1787,-6.4466,-5.0886,1.1060,0.6935,4.3237,-1.9995,9.1667,11.2427,-24.6768,11.9488,-5.2064,11.7051,-0.7142,-1.3766,-19.5092,0.0
1741737602.592000,648,18.8519,0.8601,-3.9196,3.0609,3.5412,5.5063,-2.5394,10.5792,11.3471,-25.7029,14.0017,-0.7337,13.8561,2.6145,-1.5629,-19.9055,0.0
1741737602.596000,649,19.0192,3.9191,-4.4008,3.0006,2.1660,6.3312,-6.0187,11.9562,10.3712,-22.1653,16.8931,4.5531,12.8144,-1.2261,-3.2134,-24.3011,0.0
1741737602.600000,650,16.8650,5.7679,-11.0472,3.6631,-1.4417,5.1745,-10.0277,10.1550,5.5847,-17.8743,14.0910,3.6583,13.3355,-1.9314,-3.0100,-25.3210,0.0
1741737602.604000,651,15.8519,6.2107,-11.8351,6.4667,-1.3461,5.7128,-11.1745,12.1273,4.1585,-15.8551,12.2990,4.8172,10.6980,-2.7447,-7.6776,-25.1773,0.0
1741737602.608000,652,12.5880,6.1389,-15.5645,10.0039,-2.8358,7.9925,-7.0463,10.4551,2.9664,-12.0043,10.0021,6.8392,8.4309,-4.7932,-10.7077,-20.1363,0.0
1741737602.612000,653,8.1312,2.9906,-17.5240,14.1787,-1.4474,5.7165,-4.0788,9.7253,2.2074,-5.8183,10.8144,5.1489,5.3952,-7.3495,-11.9791,-14.9078,0.0
1741737602.616000,654,6.8673,1.9683,-19.2740,15.9026,1.5962,2.2851,-2.7747,9.2805,-1.7573,-0.6973,10.4364,1.9520,4.7901,-11.9468,-11.5386,-11.7557,0.0
1741737602.620000,655,5.1953,0.5679,-15.4414,18.8675,0.9466,-0.0652,0.5361,10.0551,-5.3618,4.1568,8.3576,2.7078,1.2129,-14.7185,-11.6507,-3.2703,0.0
1741737602.624000,656,5.6258,-0.5965,-11.8241,20.2260,2.2091,-0.9796,3.6652,6.5924,-13.1625,7.0625,8.9123,0.5118,2.1317,-16.8299,-10.2833,-0.0707,0.0
1741737602.628000,657,6.1687,-0.6040,-4.8839,19.9295,4.0641,0.5501,8.1157,6.3673,-14.5435,8.5199,6.2356,-1.7665,-2.2413,-16.3723,-8.8206,6.0427,0.0
1741737602.632000,658,2.9183,2.9493,1.1889,19.7408,3.8025,-2.8350,17.3034,7.5087,-17.0357,7.9979,5.0873,0.6519,-4.9540,-10.2019,-6.3958,12.5408,0.0
1741737602.636000,659,0.2120,6.6775,5.1504,15.8849,2.6402,-4.2984,15.8659,5.3217,-15.8025,7.9923,5.0317,3.2827,-4.8367,-6.4037,-2.7405,18.4665,0.0
1741737602.640000,660,-0.3655,14.5750,6.7165,12.7207,3.4463,-9.5402,18.8439,2.3776,-12.1671,6.3048,5.8746,8.0711,-4.3160,-7.5456,3.5854,21.3516,0.0
1741737602.644000,661,-2.4067,14.3745,2.4077,12.4604,5.0325,-7.2902,20.0264,-0.9908,-5.4835,9.2387,4.6798,11.6551,-1.7697,-4.7870,7.6745,23.6878,0.0
1741737602.648000,662,1.8169,10.4369,-1.8351,14.7718,7.5798,-3.9614,20.7926,-4.0975,-0.8271,10.3831,2.3760,12.2818,0.6586,-3.0045,11.2117,24.0661,0.0
1741737602.652000,663,2.2341,5.3730,-7.2361,15.5327,6.8184,2.6276,20.2463,-6.4475,5.2581,15.6066,1.6016,10.0288,-0.0018,-2.8357,15.7115,21.0026,0.0
1741737602.656000,664,3.8594,0.8191,-9.4271,18.4928,7.9264,7.2625,21.3606,-9.1566,11.3137,20.1624,1.0756,5.9917,-0.9552,-0.1569,22.2070,22.2928,0.0
1741737602.660000,665,4.4119,-4.1291,-8.7237,14.0453,10.9410,9.0444,19.2742,-8.1829,13.8600,20.2114,6.0971,-0.8769,0.4627,-2.2779,23.0407,14.8750,0.0
1741737602.664000,666,5.6255,-6.7093,-3.6296,9.5893,16.2450,12.6853,17.2882,-6.9535,17.0947,20.6814,4.4940,-4.1292,3.6895,-4.6197,27.4597,9.9961,0.0
1741737602.668000,667,10.7290,-7.6446,2.0321,2.7498,15.1407,17.9323,16.0246,-6.0457,15.9980,18.9188,4.5019,-10.0529,7.8806,-3.2319,25.3148,5.6767,0.0
1741737602.672000,668,11.7910,-9.0234,8.6513,-7.1003,11.7129,24.8567,16.4091,-7.0864,20.7940,17.9590,4.9704,-9.1981,8.6903,2.7262,22.9910,0.7471,0.0
1741737602.676000,669,11.1292,-4.6034,14.4138,-11.7638,10.8790,25.9534,15.2416,-2.2925,23.6368,13.1225,8.3814,-4.1380,11.8171,12.1634,21.3541,-5.2314,0.0
1741737602.680000,670,10.3494,-0.0761,12.0422,-17.8470,10.7230,27.5525,6.5335,-0.3441,26.5412,9.6253,12.4516,1.5312,15.3812,15.8966,20.1680,-9.4966,0.0
1741737602.684000,671,9.9604,5.7961,11.9407,-15.9519,9.9129,22.7116,-0.0368,5.5265,29.3616,8.9170,13.7221,11.2556,16.2644,17.6551,18.8186,-12.6677,0.0
1741737602.688000,672,7.7920,6.7816,7.3810,-14.1461,6.3620,25.7623,-8.6757,8.8828,32.5561,8.4081,13.0588,18.2883,17.9983,15.0925,19.5803,-12.4153,0.0
1741737602.692000,673,11.0130,1.7542,2.6193,-9.5309,5.3704,23.9162,-15.2477,14.8014,27.2364,5.6113,13.0971,20.4665,19.3865,11.4648,18.4359,-14.8597,0.0
1741737602.696000,674,11.7157,-4.4147,1.4603,-0.9811,5.0079,20.5594,-16.9998,18.4764,24.8235,4.8789,11.1644,19.8564,19.6144,3.3329,13.2287,-12.1662,0.0
1741737602.700000,675,6.3065,-8.0020,-1.7376,6.1512,5.3937,17.5202,-17.0753,19.3219,14.5277,4.6245,14.8019,17.7464,17.2521,-2.8721,7.6722,-6.7853,0.0
1741737602.704000,676,3.2348,-6.6214,2.0881,6.8772,10.4051,10.1778,-10.4522,23.3081,10.9084,-1.1159,17.3777,11.3056,14.5909,-6.2010,2.4180,-1.7774,0.0
1741737602.708000,677,1.7540,-3.6246,5.4074,7.9161,13.4519,3.0687,-5.3288,24.5723,2.8049,-6.3839,15.3040,12.8337,12.9182,-10.1273,-3.3109,3.8312,0.0
1741737602.712000,678,1.8061,3.2880,10.5735,4.5491,14.4832,0.7604,-1.1660,23.1101,-7.4654,-11.9856,10.9452,15.9348,11.8276,-8.7230,-9.3485,10.2934,0.0
1741737602.716000,679,3.2366,10.6025,10.2538,0.9439,9.3539,-3.3259,6.8592,23.4727,-11.9050,-12.2443,8.0453,18.9009,11.7835,-8.8102,-10.8394,12.6380,0.0
1741737602.720000,680,-2.1235,16.5645,8.2303,-2.1922,10.1727,-5.8078,9.7958,24.0814,-14.4955,-12.4054,4.9042,24.1406,14.1897,-6.7218,-10.1626,15.1265,0.0
1741737602.724000,681,-5.7029,19.4678,4.4966,-1.5859,3.2550,-12.9686,10.4717,22.1302,-13.2061,-10.5091,2.2240,25.4688,15.0710,-6.6307,-6.3615,15.6868,0.0
1741737602.728000,682,-12.0561,23.3094,1.5561,0.5657,5.1151,-15.4006,11.0507,21.4349,-10.3765,-9.7619,-0.6145,25.7485,17.9378,-6.3323,-0.9797,18.8550,0.0
1741737602.732000,683,-12.6209,21.7626,1.3863,1.8714,7.8104,-13.6881,9.8090,19.8410,-8.5900,-6.9088,-4.3278,20.8395,17.7220,-7.2425,4.6988,18.9673,0.0
1741737602.736000,684,-11.7925,20.2134,2.1488,7.4331,8.3008,-12.0736,9.9448,14.4174,-6.6071,-5.0967,-9.8863,16.1522,15.7136,-6.0772,10.0910,15.9998,0.0
1741737602.740000,685,-6.5800,21.4171,4.9344,7.2560,8.2922,-6.4333,10.8082,6.0406,-4.9067,-2.3743,-18.2947,10.4551,10.3811,-3.8409,14.9139,17.2056,0.0
1741737602.744000,686,-3.1529,22.9457,7.9519,3.7255,10.7079,-3.5591,13.7856,-2.2484,-2.2048,3.7667,-16.2735,6.0094,4.5657,1.7364,15.5716,13.4130,0.0
1741737602.748000,687,1.3843,24.3690,12.0057,-0.1292,9.7813,-0.3699,12.8218,-8.4079,2.4497,7.5952,-17.6223,2.9277,-1.6787,6.0203,13.0806,12.8918,0.0
1741737602.752000,688,7.2642,23.5436,10.9526,-3.5511,7.7464,0.0009,11.7903,-15.3075,4.3411,11.8805,-21.2688,0.7090,-8.4252,11.3845,11.4631,10.7257,0.0
1741737602.756000,689,12.2914,23.9798,9.1617,-5.9375,5.6604,2.7762,8.8396,-16.1774,7.9275,18.2733,-14.9825,1.8141,-12.3922,14.7036,6.2003,6.3820,0.0
1741737602.760000,690,12.9329,21.1572,7.6364,-3.8807,3.0029,3.9669,5.0380,-15.9603,10.2490,20.6153,-9.0368,1.4184,-11.5316,15.4881,2.8600,0.8429,0.0
1741737602.764000,691,8.4177,13.8485,6.9697,-2.4433,2.3857,0.8018,1.9153,-12.5334,15.1379,30.4979,-6.5205,-5.5753,-8.6988,12.7351,5.1810,-3.8656,0.0
1741737602.768000,692,4.9205,6.6741,9.5809,0.7558,-1.0416,1.5141,-0.9932,-8.0865,12.8040,31.9781,-2.4464,-9.4612,-7.2933,14.9471,3.8093,-6.9107,0.0
1741737602.772000,693,-0.6143,2.4637,13.1034,3.4085,-0.4737,3.3555,-4.3818,-1.6057,8.0110,30.3753,1.6317,-11.6488,-7.4734,12.5584,4.0217,-10.0746,0.0
1741737602.776000,694,-6.4498,0.7409,22.7836,4.6889,0.3877,7.4237,-4.0935,2.1648,4.8676,25.8950,-2.3890,-13.7892,-7.6458,12.3976,2.2832,-7.9646,0.0
1741737602.780000,695,-5.8700,-1.3046,27.8698,0.6784,-1.7910,9.9714,-3.1796,1.4988,-0.6612,22.2511,-7.7970,-10.5260,-10.9676,12.6317,-2.5004,-2.9379,0.0
1741737602.784000,696,-3.9226,0.8370,30.9986,-1.9934,-2.1074,11.1951,-3.1649,-0.2341,-5.3154,15.0943,-14.0630,-9.9871,-15.5284,13.8732,-4.9018,1.1087,0.0
1741737602.788000,697,-0.8185,4.8929,28.1604,-6.6907,-6.3807,11.6836,0.2279,-3.6632,-9.2148,7.8284,-13.8992,-1.5995,-16.0475,16.5791,-7.9392,7.7415,0.0
1741737602.792000,698,2.2440,3.5008,23.4581,-4.9838,-9.4060,7.0973,1.9926,-4.5863,-9.6924,4.2441,-11.9560,1.8578,-16.7264,14.5459,-9.7195,15.6380,0.0
1741737602.796000,699,3.3910,0.8127,16.5032,-0.3507,-10.4040,1.0366,2.0473,-2.8684,-8.8167,-1.5965,-10.6950,6.5992,-13.4947,13.4711,-9.2557,17.9113,0.0
1741737602.800000,700,0.5273,1.8232,11.1089,3.0762,-8.0468,-5.9432,2.2595,0.5968,-9.2707,-5.0855,-4.0123,4.1838,-7.7262,9.0258,-3.4879,19.0738,0.0
1741737602.804000,701,-4.4928,0.6163,6.9330,8.1997,-7.8701,-12.2408,2.5014,2.0270,-11.8131,-7.1259,-0.0147,4.7335,-4.3243,6.4073,-0.4821,18.6202,0.0
1741737602.808000,702,-10.2238,-1.7539,1.3062,8.9963,-7.2506,-15.7618,1.2113,3.5393,-12.7371,-10.0586,0.9907,0.7177,0.8494,6.0889,-0.7285,15.1903,0.0
1741737602.812000,703,-14.0561,-5.3801,1.0691,4.6416,-8.6483,-14.7663,2.9689,0.9457,-13.0759,-12.5524,-0.8974,-1.2824,4.1326,4.9952,2.2380,13.0476,0.0
1741737602.816000,704,-17.3509,-2.9074,1.4710,-1.8213,-5.6570,-10.0312,4.6854,-0.6238,-12.7047,-14.6404,-4.7192,-5.3823,4.9488,5.7284,4.5561,12.0240,0.0
1741737602.820000,705,-19.1788,-2.1738,-2.0156,-6.7133,-4.9344,-3.8557,6.4122,-5.0127,-10.4830,-11.2142,-8.5505,-5.2579,4.8716,5.6825,4.2360,9.6320,0.0
1741737602.824000,706,-12.8937,0.5790,-4.8761,-12.9482,-3.4916,6.0152,5.4534,-9.7841,-5.8188,-8.7291,-12.0263,-6.8961,3.2752,10.3984,3.5370,7.9592,0.0
1741737602.828000,707,-9.5298,2.5432,-5.9211,-16.2269,-3.6597,9.7923,4.4127,-14.4301,-2.3297,-7.0635,-13.6383,-5.6570,4.1646,12.6775,5.6924,6.6852,0.0
1741737602.832000,708,-2.5458,2.8101,-9.2519,-19.8999,-6.3702,12.6275,-2.5504,-13.5243,5.1732,-1.0663,-11.7770,-3.5808,1.5762,15.0785,7.2180,0.8200,0.0
1741737602.836000,709,-0.2043,0.9190,-10.4224,-20.2528,-6.9336,11.6992,-7.3164,-11.7232,8.0472,1.7280,-8.4183,-2.1262,4.3433,16.8718,11.2543,-2.0384,0.0
1741737602.840000,710,0.3903,-2.9263,-12.5814,-19.6703,-9.4871,8.7273,-12.8235,-8.7987,11.9041,6.5409,-3.0485,-3.4126,2.4032,13.9103,12.7486,-9.1669,0.0
1741737602.844000,711,-3.3924,-4.5952,-13.9955,-16.1615,-9.1447,2.6397,-15.0779,-4.2951,12.6122,9.8894,4.0580,-2.6855,0.0679,10.8830,12.5081,-15.7674,0.0
1741737602.848000,712,-3.6777,-9.0506,-10.1941,-14.2927,-4.4045,-1.3892,-21.8736,-5.5510,11.9552,11.3194,7.8812,-3.2377,-2.7310,8.1836,9.1628,-16.5430,0.0
1741737602.852000,713,-4.2980,-12.6310,-9.0558,-13.7701,-6.6831,-1.8236,-22.1471,-6.7714,10.2807,11.1517,11.8674,-4.0839,-5.5706,6.5957,3.0112,-15.8428,0.0
1741737602.856000,714,-3.7894,-11.4037,-2.9575,-12.1183,-6.1904,-2.3828,-20.4240,-2.9538,6.3832,10.4874,9.0691,-4.5136,-12.1362,3.8951,-4.6130,-11.5747,0.0
1741737602.860000,715,-0.1257,-13.4389,-2.9449,-10.4444,-4.5898,-0.3538,-18.0110,-2.0937,2.1730,8.5734,5.7299,-1.6902,-15.1781,0.6971,-8.0719,-11.8857,0.0
1741737602.864000,716,-0.0478,-11.0446,-3.6778,-7.4686,-6.0802,0.5862,-18.1082,0.6528,0.6142,9.2563,3.9222,-0.6259,-16.9723,-1.6506,-12.8380,-6.8171,0.0
1741737602.868000,717,0.8779,-10.7184,0.3626,-4.6236,-5.2744,-3.0838,-17.2844,5.9993,-3.5134,5.3415,7.8346,3.5767,-13.7291,-6.3714,-17.4365,-4.0231,0.0
1741737602.872000,718,-3.2062,-11.5191,3.7909,-2.9993,-5.4856,-8.1075,-15.1149,10.7047,-10.6230,1.8887,9.3384,2.8281,-10.3423,-8.7111,-15.7570,-3.7247,0.0
1741737602.876000,719,-4.9682,-8.7933,2.0736,0.1219,-5.0538,-15.6227,-12.5253,14.0428,-13.6971,-5.5546,9.5724,4.4210,-5.1584,-12.3416,-17.3014,0.8266,0.0
1741737602.880000,720,-12.1243,-6.4792,1.3712,1.7834,-5.0957,-19.1375,-10.9631,13.5662,-15.8983,-11.5572,8.2169,5.5848,-1.4251,-13.0999,-15.5272,3.0653,0.0
1741737602.884000,721,-11.9189,-4.3678,1.9989,3.8312,-5.2243,-24.9554,-4.5544,15.7567,-12.7776,-12.8506,4.4569,4.3087,1.5815,-11.8083,-12.1787,8.0043,0.0
1741737602.888000,722,-12.7561,-0.2392,0.4347,5.3757,0.5461,-24.0978,1.2713,13.4789,-16.7292,-14.3014,-0.7323,6.4454,3.6008,-15.8438,-10.3685,11.4018,0.0
1741737602.892000,723,-7.6954,1.1611,-0.7349,7.0084,-1.8427,-21.6330,2.5492,5.2850,-16.6933,-14.2104,-4.5461,3.3743,4.8121,-13.2952,-7.7986,15.0718,0.0
1741737602.896000,724,-4.8216,1.3720,-3.4160,9.1170,0.6319,-18.5547,6.3270,-0.6018,-12.0988,-12.0455,-10.5503,1.7915,2.1008,-13.9529,-6.5633,16.7089,0.0
1741737602.900000,725,1.7841,6.4478,-4.4167,12.5755,-0.4617,-15.9356,10.5189,-7.2267,-9.0181,-11.8912,-15.0527,-2.0287,-0.5096,-13.5211,-3.7734,17.6298,0.0
1741737602.904000,726,9.4073,3.2992,-6.0206,12.8250,0.6919,-16.5392,12.2279,-10.4223,-6.7599,-10.8380,-12.3655,-5.1304,1.1825,-10.0981,-1.3143,18.6824,0.0
1741737602.908000,727,11.2163,2.4921,-5.2325,11.1142,3.6624,-17.1862,12.0396,-11.1826,-1.7426,-9.3244,-9.4899,-10.3069,5.1061,-7.7942,1.3109,15.1765,0.0
1741737602.912000,728,11.2717,3.2691,-1.6538,10.2734,3.4339,-12.0952,14.9666,-12.2926,4.7273,-9.3210,-5.0508,-11.5435,8.1051,-4.5334,2.8355,11.3068,0.0
1741737602.916000,729,5.9620,3.9770,-0.4525,6.0934,5.6623,-10.5273,17.0319,-12.3769,6.2301,-5.2579,-1.4556,-11.6763,8.2542,-0.2012,6.2757,3.3893,0.0
1741737602.920000,730,6.3438,2.7602,-2.4465,6.9509,3.2517,-7.8796,13.3623,-13.4107,10.5094,-2.1547,0.2027,-12.8569,4.4386,2.3866,6.9243,-1.4008,0.0
1741737602.924000,731,6.3755,2.4045,-3.4238,8.3276,3.3611,-0.7845,15.0001,-12.3462,14.8828,2.4791,1.9776,-13.9648,0.1294,7.2885,6.3061,-5.0794,0.0
1741737602.928000,732,9.1189,0.3452,-3.1050,7.7375,0.3184,6.8021,11.4696,-11.4484,17.3114,7.4171,-4.1655,-13.5349,-3.0477,8.8498,5.0764,-6.8432,0.0
1741737602.932000,733,11.8558,-4.9803,-3.3490,4.5080,0.2315,15.4432,7.5373,-9.8329,18.5709,9.4093,-7.8510,-11.6357,-3.0936,5.6494,6.3540,-10.4839,0.0
1741737602.936000,734,14.5217,-10.0385,-3.6077,4.5944,-2.6996,17.9421,3.5167,-8.1803,18.8460,9.7444,-7.6665,-14.1489,-5.3381,5.6285,4.2179,-10.5278,0.0
1741737602.940000,735,19.2929,-16.1316,-1.7640,1.7255,-3.0688,20.1740,2.9642,-1.2656,17.9884,11.1159,-3.8340,-14.5154,-6.5409,0.6562,4.8788,-14.7508,0.0
1741737602.944000,736,17.3851,-16.9378,0.8830,1.5174,-2.2903,17.1478,1.1891,-3.3097,15.1433,6.7833,1.7788,-17.3762,-10.8082,4.3184,2.0122,-16.5787,0.0
1741737602.948000,737,16.5735,-14.5222,5.0294,1.4995,-0.6797,15.3786,-0.8359,-0.6953,8.7074,-0.8583,5.6541,-16.2650,-10.2032,4.7607,-2.7359,-19.7497,0.0
1741737602.952000,738,13.0227,-11.8997,8.2533,-1.4340,-3.4058,9.8942,-1.9032,4.5758,6.6206,-6.1523,8.3020,-14.1379,-8.8898,6.1349,-3.9250,-21.8430,0.0
1741737602.956000,739,11.1943,-6.2784,10.2418,-8.2111,-4.4857,7.5909,-2.9498,6.2956,3.9478,-12.2113,10.0547,-4.8590,-4.5517,7.7158,-5.3963,-21.3925,0.0
1741737602.960000,740,7.2860,-3.8605,5.9932,-8.8659,-6.2758,6.2244,-5.7114,10.5305,3.6489,-14.8483,8.3056,2.6580,-6.1429,6.6537,-1.9935,-21.1857,0.0
1741737602.964000,741,5.0370,-1.9794,-1.8760,-6.8994,-9.2810,8.9367,-6.9024,12.8494,-0.4954,-17.1181,8.3135,8.4454,-1.5813,7.2475,-5.1177,-23.1448,0.0
1741737602.968000,742,4.2583,-1.9424,-12.3993,-1.9676,-8.1185,5.7602,-10.3313,11.4732,-0.6307,-15.9981,8.7658,4.9902,-1.6062,2.3243,-7.0998,-19.5316,0.0
1741737602.972000,743,-1.4310,-3.0661,-14.8597,5.4514,-6.5639,5.4297,-11.0577,11.6005,-4.6275,-21.4474,6.5719,5.0172,5.1892,-3.5910,-5.2847,-19.8064,0.0
1741737602.976000,744,-4.3418,-5.7016,-16.3066,6.7384,-3.0290,5.1922,-11.5214,10.0301,-5.1975,-18.0059,6.6994,3.2867,9.1980,-8.5527,-5.9449,-14.8648,0.0
1741737602.980000,745,-3.4697,-7.5158,-14.4123,3.3930,-2.5215,6.1638,-10.1287,10.7437,-13.8434,-17.1628,4.8006,2.9713,9.9707,-10.0682,-5.1980,-12.9905,0.0
1741737602.984000,746,-4.8734,-5.2017,-14.4896,1.9965,-1.1312,2.3711,-6.8449,9.8489,-14.9859,-14.4178,2.2065,1.9729,9.7271,-14.0825,-6.3364,-8.4418,0.0
1741737602.988000,747,-6.4000,-3.8213,-15.5330,0.8098,-1.4339,-1.3344,-2.0109,6.2423,-18.3989,-8.1087,-0.0842,-0.1001,6.4036,-13.8689,-6.9085,-5.5886,0.0
1741737602.992000,748,-8.3103,-0.3374,-13.3264,0.8681,-2.2605,-3.8928,1.1452,1.8753,-18.7575,-7.2946,-0.2459,0.8040,6.2778,-13.3347,-8.3494,-0.7936,0.0
1741737602.996000,749,-8.4837,6.0386,-9.8964,-0.9665,-3.1374,-8.4550,0.6490,-0.5734,-18.0572,-2.2767,0.5980,1.1627,6.5970,-10.9789,-7.8947,5.4459,0.0
1741737603.000000,750,-11.5874,6.8931,-11.1678,-3.0090,-1.9328,-7.1556,7.4315,-1.7418,-16.3281,0.5655,-0.1908,7.0325,7.1162,-9.3536,-4.8706,14.0992,0.0
1741737603.004000,751,-9.6265,6.6078,-9.9313,-1.4402,-3.6749,-6.4205,5.6320,2.5224,-13.0457,5.9348,-0.8143,8.9724,2.8678,-9.3723,2.3069,16.0221,0.0
1741737603.008000,752,-8.4729,9.6123,-13.9490,5.9532,-2.7642,-8.0734,5.6970,0.4197,-10.4148,10.1780,-0.0425,11.0296,0.8062,-10.7392,8.1463,16.4802,0.0
1741737603.012000,753,-8.9717,4.9221,-10.0458,9.4695,0.7862,-5.7967,7.1669,-3.4712,-7.2814,12.7166,-2.0691,5.3408,-1.2017,-10.1583,10.4163,21.3187,0.0
1741737603.016000,754,-10.5600,1.3399,-7.7549,10.7787,1.3609,-5.6615,7.0264,-5.7233,-4.7255,12.5410,-0.9009,4.1506,-2.8853,-11.1635,12.0473,21.3542,0.0
1741737603.020000,755,-8.3263,3.0397,-1.0930,8.2034,2.1881,-6.0969,12.1791,-6.1653,-2.4594,15.6460,-3.3882,4.2905,-3.4937,-9.3220,12.9054,23.7453,0.0
1741737603.024000,756,-5.5428,0.8057,-0.9537,3.4604,4.5575,-0.3782,14.3318,-7.8080,1.3340,17.1948,-4.4357,4.8164,-7.3148,-4.8337,15.1477,23.6113,0.0
1741737603.028000,757,-4.1916,-1.0633,-0.3287,-0.4853,9.1999,1.3629,16.0765,-8.4079,7.0414,19.6077,-4.4464,2.5740,-8.9641,-6.9797,15.8729,21.0014,0.0
1741737603.032000,758,0.7066,-2.5884,-1.1925,-1.2944,9.8188,2.4349,14.0088,-10.7770,11.6115,23.1275,-4.7730,0.8184,-8.9239,-5.6481,16.3793,18.3707,0.0
1741737603.036000,759,4.2352,-5.5267,0.5651,-2.2488,9.4176,7.0146,13.0081,-11.5931,14.2251,18.7360,-0.5225,-4.0689,-7.5290,-6.9180,15.8037,10.1305,0.0
1741737603.040000,760,4.3784,-8.6424,6.5557,-6.5961,7.8437,8.8996,11.1181,-5.6803,18.3178,16.8314,-0.0259,-3.2478,-2.4368,-2.5037,16.1651,6.4834,0.0
1741737603.044000,761,6.7302,-7.3220,10.9320,-11.4409,9.0127,9.8661,8.1874,-1.9205,21.3469,10.0258,0.6133,-3.6427,1.1190,1.5091,17.6731,-0.8665,0.0
1741737603.048000,762,2.4532,-4.7409,17.7542,-15.3812,8.7092,9.8606,0.7780,0.7206,21.2985,4.9187,2.1486,-2.0243,4.4896,4.1420,22.2169,-8.0425,0.0
1741737603.052000,763,2.3397,0.7534,19.7741,-17.5922,6.0410,10.7450,-5.4139,5.3327,19.9346,-1.5803,4.2078,-0.5256,7.2641,8.5683,19.9519,-13.7830,0.0
1741737603.056000,764,3.5775,2.7959,19.0981,-14.9492,5.9830,12.9003,-7.3840,2.4311,21.5166,-7.6242,3.4612,1.2563,7.3774,10.1817,15.4650,-16.1906,0.0
1741737603.060000,765,8.0499,2.6683,14.3249,-15.0992,1.6792,16.4732,-10.9837,5.0262,21.5421,-9.0396,-0.2409,4.2895,7.3220,13.2793,9.6185,-18.1394,0.0
1741737603.064000,766,7.2014,4.5073,7.6150,-14.0345,0.1507,14.8778,-11.8305,6.2599,20.2714,-12.7621,-0.1863,11.4200,3.9750,15.2296,2.4121,-16.2597,0.0
1741737603.068000,767,9.8016,5.2519,3.4282,-7.6794,-1.5171,11.0158,-16.9716,7.5032,16.9865,-12.0112,1.2280,12.7632,4.0644,12.9812,0.3185,-14.7052,0.0
1741737603.072000,768,9.9760,3.9934,-3.4714,0.7539,1.2068,11.0001,-21.2015,6.7158,13.7972,-9.8998,2.8778,13.4169,2.8209,5.9150,-5.2091,-15.1708,0.0
1741737603.076000,769,8.2170,-1.0327,-2.5132,3.9667,2.6862,0.7175,-20.1025,9.5904,1.6032,-9.9598,1.8938,6.7976,3.6684,-2.0759,-12.5033,-13.5810,0.0
1741737603.080000,770,6.8858,-3.4006,-1.9363,8.3133,-0.0698,-1.9120,-16.1235,13.2669,-5.4443,-10.9916,2.8403,0.8506,7.6763,-7.3303,-16.2700,-9.6616,0.0
1741737603.084000,771,-1.0898,-5.2286,1.4349,7.5203,0.0676,-9.0242,-12.3504,14.1242,-13.6273,-15.3058,3.2950,-1.4846,6.5084,-10.0227,-22.8874,-6.3855,0.0
1741737603.088000,772,-9.8603,0.2918,4.8351,3.9998,-3.7341,-14.8346,-1.6752,13.0113,-19.5413,-19.4938,1.9059,-0.7440,5.5117,-4.9211,-22.0398,0.2980,0.0
1741737603.092000,773,-15.2609,10.9538,5.5535,2.5082,-0.9411,-19.3405,0.5254,13.6696,-24.1511,-18.0834,0.4321,3.3545,2.2393,-4.8500,-24.9351,4.4621,0.0
1741737603.096000,774,-18.6758,15.8803,4.3706,0.0939,-2.5287,-18.1856,4.1116,8.4321,-25.9691,-16.3014,-7.0267,6.7600,1.1233,-3.8956,-22.5294,10.4572,0.0
1741737603.100000,775,-14.5700,20.2645,1.0342,-1.0754,-4.3958,-13.2005,6.9658,5.8217,-26.5896,-14.7542,-18.7393,8.5607,-0.5336,-2.7184,-18.5109,14.4811,0.0
1741737603.104000,776,-12.6957,19.5566,-2.7307,4.3540,-12.3871,-10.2650,8.8170,0.4031,-25.0892,-10.1847,-22.3063,12.3443,-4.0261,-1.7413,-11.5153,19.1534,0.0
1741737603.108000,777,-9.5238,16.3781,-6.7541,6.6818,-11.5476,-10.1196,8.6035,-2.4032,-18.7188,-5.5823,-25.2203,9.1078,-8.4480,-1.3832,-3.4971,22.7784,0.0
1741737603.112000,778,-8.3253,12.7463,-8.2906,11.1023,-8.9645,-13.9383,6.8950,-7.5288,-18.3845,0.8444,-21.6427,5.9833,-11.0623,-3.2299,3.4732,22.9968,0.0
1741737603.116000,779,-8.8120,7.7847,-7.8818,11.8827,-3.7184,-14.3730,6.5718,-12.6754,-14.6600,2.0352,-18.6238,-5.8602,-11.1667,-4.5596,8.5568,19.1797,0.0
1741737603.120000,780,-5.6746,5.5010,-3.3520,8.2861,0.1409,-15.4364,7.5295,-18.2735,-12.5469,6.1571,-16.7346,-14.2796,-14.2335,-4.8416,8.8377,18.1449,0.0
1741737603.124000,781,-0.5725,5.1080,2.3930,0.0190,-1.8959,-13.4435,10.7063,-20.9337,-9.1322,7.5999,-16.5320,-15.6689,-15.9118,1.5717,10.9266,10.6851,0.0
1741737603.128000,782,-0.5527,3.7000,2.3070,-9.0465,-3.7919,-5.4827,11.3423,-23.8071,-3.0517,8.7984,-14.8623,-15.3269,-17.1566,8.3160,9.0208,4.6072,0.0
1741737603.132000,783,2.3325,7.1675,2.6777,-12.9268,-3.2475,-1.1885,9.6665,-24.7201,4.6873,15.0753,-9.5563,-11.2528,-19.6163,16.0074,8.0090,0.0813,0.0
1741737603.136000,784,1.6208,4.3405,-0.7378,-15.1648,-5.5229,5.8391,3.9735,-21.9167,10.1057,19.1778,-5.7469,-11.5069,-19.2491,17.9332,8.5561,-7.1503,0.0
1741737603.140000,785,1.8640,0.4489,-0.7057,-15.9499,-7.4009,11.4855,-4.8800,-19.3937,17.0309,24.3322,-2.6567,-11.3320,-12.6816,17.9500,8.8123,-11.1472,0.0
1741737603.144000,786,3.5850,-6.4844,-0.6979,-11.3923,-10.0825,16.3082,-12.5478,-11.1370,16.2120,25.1191,-1.6529,-12.6235,-8.2375,12.4978,7.7264,-13.4871,0.0
1741737603.148000,787,3.7275,-15.8871,-0.5261,-9.6749,-11.1761,18.4901,-15.8055,-6.8987,13.1182,23.1590,0.9534,-15.1241,-7.0267,10.1297,9.3359,-16.0043,0.0
1741737603.152000,788,2.7431,-21.3857,4.6893,-7.0500,-11.4246,19.2113,-17.4894,-1.9375,13.2740,18.6276,3.1792,-15.8311,-5.3851,7.7065,7.9591,-18.5601,0.0
1741737603.156000,789,1.3941,-21.7099,9.1232,-5.9048,-9.7415,13.8084,-20.0893,2.3175,11.5575,12.7175,8.9385,-15.5097,-5.4844,8.3663,5.7569,-14.7935,0.0
1741737603.160000,790,-1.5568,-14.8271,14.4802,-4.8264,-5.5372,10.1472,-18.0414,0.4319,4.1539,2.7250,6.4908,-13.3336,-7.7585,5.4517,-1.1593,-12.1394,0.0
1741737603.164000,791,3.1555,-9.6661,12.6953,-6.7812,-7.6680,6.2947,-16.8942,0.8554,-0.0736,-5.9285,6.0689,-3.9642,-7.7215,5.5024,-8.6628,-5.5071,0.0
1741737603.168000,792,9.3061,-7.6622,13.0538,-7.1307,-9.0823,5.3977,-15.0219,8.1273,-3.7766,-9.9837,5.4409,6.0407,-9.1628,7.9591,-15.5925,-1.5278,0.0
