timestamp,package_num,Fp1,Fp2,F3,F4,C3,C4,P3,P4,O1,O2,F7,F8,T3,T4,Pz,Oz,marker
1741737600.000000,0,-1.3949,-3.8413,-6.0342,-3.9917,1.4183,5.0028,-10.2750,-1.2885,-6.8430,-18.2718,-3.9458,-0.1163,-3.0747,6.0738,5.8176,-3.3926,0.0
1741737600.004000,1,2.3550,-4.0258,-0.6140,2.7470,5.2360,1.3259,-5.6738,2.0734,2.6392,-8.9671,-1.7336,-4.9673,-4.0146,5.4118,5.9067,4.2856,0.0
1741737600.008000,2,4.7616,-6.2814,0.2609,2.8653,5.8024,2.0177,-3.8378,2.2197,9.9944,0.8118,-2.3172,-10.0202,-2.4843,7.6304,3.4957,11.5497,0.0
1741737600.012000,3,4.1821,-7.2180,4.6485,7.0737,4.8484,1.5933,-0.2490,1.1468,11.2586,5.3440,-0.7463,-12.2993,-5.3980,3.7419,4.9187,15.8892,0.0
1741737600.016000,4,2.0929,-8.5010,1.3570,3.9197,3.9693,-0.9506,1.5149,-1.5339,10.9385,6.9178,-0.3875,-11.7320,-6.3129,2.3750,2.3661,16.5212,0.0
1741737600.020000,5,2.9014,-6.3920,1.0701,4.9488,2.9742,-0.1025,0.2513,-3.9274,10.4239,6.2189,0.1996,-10.3652,-8.7098,-2.3594,-0.0481,11.3603,0.0
1741737600.024000,6,2.4633,-2.5050,-0.1039,2.0267,3.3128,-3.3353,3.3835,-2.9228,10.3038,9.7135,1.2051,-7.4304,-11.6073,-7.3260,-4.4853,10.8937,0.0
1741737600.028000,7,4.3063,2.7672,0.1535,0.7706,-1.4372,-3.4393,2.5643,-5.6120,7.3288,7.2978,0.5167,-2.0923,-12.5175,-9.6744,-6.3237,7.7383,0.0
1741737600.032000,8,1.4303,5.0128,-1.0910,-1.3345,-2.6281,-2.5540,2.6599,-5.8867,5.8774,7.5163,1.5435,-0.8276,-11.5766,-11.6575,-7.9589,2.9811,0.0
1741737600.036000,9,0.2693,5.8766,0.5630,-1.6583,-6.5493,-0.4388,1.3542,-5.4896,5.1471,4.7559,-2.3367,-1.2439,-11.0120,-11.9385,-8.8424,2.6665,0.0
1741737600.040000,10,2.5469,7.8387,0.9825,-1.5613,-8.8706,1.5854,-2.2121,-7.3363,0.5343,1.7092,-3.5536,-5.6425,-2.8412,-12.6662,-7.3610,-3.0627,0.0
1741737600.044000,11,1.0958,6.1616,3.4085,-1.7814,-9.9267,0.1061,-4.3662,-6.5800,-3.0926,2.6919,-3.7214,-5.2022,-2.7428,-11.5316,-10.0458,-6.8239,0.0
1741737600.048000,12,0.2651,3.9458,4.2901,-0.1654,-12.7451,-0.3983,-3.8530,-8.4452,-7.2016,-2.5427,-7.8565,-8.7747,-1.6090,-6.7453,-11.9645,-13.7221,0.0
1741737600.052000,13,0.1969,2.4294,4.4674,-4.8937,-8.7878,0.4444,-2.5351,-8.0326,-10.8419,-4.1923,-9.5538,-15.3662,-2.4826,-5.0105,-12.5771,-15.0538,0.0
1741737600.056000,14,-1.6404,0.1133,2.8926,-5.0415,-8.5609,-1.9182,-2.8768,-11.1694,-12.6734,-6.1690,-10.2563,-14.3058,-0.3122,-4.1122,-13.0696,-18.0599,0.0
1741737600.060000,15,-1.7167,-2.2064,2.9908,-1.8446,-9.5497,-1.8083,-0.9799,-12.5036,-13.9643,-11.6220,-1.5624,-15.7432,-3.9062,-2.5845,-13.3324,-19.4456,0.0
1741737600.064000,16,-1.8861,-1.2661,3.4169,-3.0499,-6.8358,-3.0388,-0.7848,-11.7220,-6.0366,-15.1160,0.8031,-16.0384,-4.2660,-5.2727,-11.4664,-13.1567,0.0
1741737600.068000,17,-2.1273,-2.6427,2.0592,-4.0553,-4.4488,-4.2744,-0.1803,-15.3881,-10.1687,-18.3915,2.5474,-13.1533,-6.4639,-6.9201,-11.0770,-19.7896,0.0
1741737600.072000,18,-5.9856,-0.5693,3.0832,-5.5502,-4.2842,-1.5299,2.4495,-11.1384,-12.1361,-20.9631,4.3537,-10.9884,-8.0720,-5.7721,-9.2251,-19.8164,0.0
1741737600.076000,19,-9.6500,-2.1916,-0.3860,-11.0280,-3.9655,-0.2855,2.9441,-11.3457,-11.0100,-17.3421,3.8354,-7.8329,-5.2872,-10.3356,-5.9205,-20.2475,0.0
1741737600.080000,20,-11.1002,-0.3247,-5.6413,-10.8107,-7.0429,0.9881,2.8484,-6.4970,-9.9656,-11.5029,1.8256,-7.3034,-4.9829,-9.9586,-2.8928,-12.9377,0.0
1741737600.084000,21,-11.1780,2.2370,-1.7431,-10.3450,-8.4154,2.1285,3.7933,-2.0827,-2.0050,-1.0460,4.0766,-7.8593,-6.1541,-9.6104,-0.0989,-4.4440,0.0
1741737600.088000,22,-10.0715,3.5704,-3.9316,-10.0092,-8.8538,3.2110,7.9888,-0.0274,0.9539,6.4080,3.5908,-3.9824,-3.0453,-8.4981,4.0620,3.7173,0.0
1741737600.092000,23,-5.6540,5.4617,-0.8212,-11.8589,-9.7331,6.7178,7.7362,1.2797,7.3345,12.6531,2.9578,-2.7009,-4.0182,-7.9237,5.5691,6.8280,0.0
1741737600.096000,24,-5.4461,5.2496,2.2796,-7.2375,-6.7554,7.8265,8.4135,4.2864,3.5396,13.9550,2.2021,-4.9137,-0.8203,-4.6818,4.9520,6.6945,0.0
1741737600.100000,25,-2.4061,4.4278,4.7963,-6.9322,-7.0844,6.6775,8.4931,2.3145,0.7356,12.8030,2.3185,-4.3608,-4.3483,-5.9365,1.8382,2.9253,0.0
1741737600.104000,26,-0.7086,2.3523,9.3681,-2.6393,-5.2464,9.5306,7.2765,3.1626,-4.0449,7.9197,1.8202,-6.5034,-2.3675,-2.8977,-1.5451,-3.3643,0.0
1741737600.108000,27,0.0992,1.9975,9.0529,-1.2918,-4.2476,6.4689,6.9822,0.6123,-6.6409,5.8083,2.8217,-6.2518,2.4063,-3.6864,-1.6122,-4.1273,0.0
1741737600.112000,28,0.0403,4.2139,12.3445,0.2871,-1.5608,7.4768,5.3876,0.4541,-5.3587,4.1649,5.8873,-5.3007,3.7639,-2.2371,-3.3365,-2.2891,0.0
1741737600.116000,29,-2.3085,1.3653,13.8588,-3.0362,1.0302,7.8521,5.9304,1.2728,-7.8508,3.1684,4.5340,-3.5032,7.9468,-2.0760,-5.7389,-3.4294,0.0
1741737600.120000,30,-1.5006,4.3786,14.1917,-2.2927,0.7831,8.4333,6.6841,0.8072,-6.5182,3.9834,4.0012,-0.4800,5.6688,-1.5043,-6.4898,0.2570,0.0
1741737600.124000,31,-4.2553,7.6420,14.2238,-2.8446,-1.1959,9.9800,5.5381,1.4007,-5.0987,0.0510,3.8564,-1.6809,6.5581,-1.5775,-7.3933,0.2318,0.0
1741737600.128000,32,-4.4099,9.1592,11.9218,-1.3863,0.4513,10.6989,6.7612,3.1343,-4.7218,1.2290,9.0673,1.4343,6.2797,-6.8527,-8.5258,-0.3202,0.0
1741737600.132000,33,-7.3217,11.4029,12.0182,-4.6701,1.5436,10.9644,8.1409,2.9965,-4.7997,-3.3139,10.6995,1.7033,0.5428,-4.1623,-9.0007,-0.9100,0.0
1741737600.136000,34,-8.0185,15.4713,8.7367,-3.8814,1.3579,9.0020,5.3303,0.4673,-2.8552,-4.4886,15.7524,4.9525,0.6940,-3.3202,-8.3049,0.6341,0.0
1741737600.140000,35,-8.7992,16.4409,7.5066,-3.4431,1.9926,11.9665,6.5179,0.2083,-2.2152,-7.2520,17.6527,3.9413,-1.5172,-3.5804,-3.7378,-0.3721,0.0
1741737600.144000,36,-10.6517,14.4208,5.9067,-6.3925,0.8764,8.8442,5.8778,0.1286,-0.5270,-7.0255,18.2796,0.0236,-6.0444,-4.4759,-0.5827,-1.9140,0.0
1741737600.148000,37,-11.4387,13.6733,5.0218,-6.5887,2.5663,7.4049,3.2210,-0.4686,-3.9271,-11.7163,18.4066,0.7557,-6.2210,-4.6362,-1.4788,-7.2687,0.0
1741737600.152000,38,-11.4437,10.9883,3.2170,-4.6098,3.9518,9.3152,1.3156,-2.0510,-7.9377,-14.0967,15.6165,-1.8710,-6.6428,-1.2084,1.5438,-12.6682,0.0
1741737600.156000,39,-10.3649,10.2057,3.6252,-1.8957,2.8265,8.0274,-0.7292,-0.3624,-9.9833,-15.2879,13.3883,-0.6115,-6.8284,-3.1639,1.5866,-16.9202,0.0
1741737600.160000,40,-8.1660,10.9508,4.7520,-1.2400,2.0035,6.7115,0.3747,-2.6104,-10.7186,-14.4707,9.9741,-2.0246,-3.6802,-2.6834,2.6553,-14.4178,0.0
1741737600.164000,41,-4.7007,9.3971,5.0283,-1.2759,1.2561,5.8852,-0.7647,2.0244,-7.7691,-3.6183,5.7307,-1.5315,-4.5357,-0.5246,3.3399,-6.7480,0.0
1741737600.168000,42,-0.9249,8.5271,8.6886,3.1569,3.2734,6.5372,2.2973,-1.4684,-1.0524,3.7342,3.5992,-2.4214,-2.8035,-3.3139,4.6136,-0.5104,0.0
1741737600.172000,43,4.0027,5.7229,10.7207,7.2449,-0.9009,3.4035,3.6728,1.8069,4.8763,10.9354,2.0674,-6.0348,-3.6276,-0.1901,6.2631,7.8045,0.0
1741737600.176000,44,4.3022,3.9036,10.2370,9.7958,1.3111,2.3662,8.4358,-1.3002,8.6761,17.1718,1.2580,-5.2514,-3.5067,-4.4840,5.6815,9.4889,0.0
1741737600.180000,45,5.8416,1.9902,8.9146,7.2257,3.3670,0.6122,5.8386,-2.3713,11.6455,18.1728,0.0068,-4.1609,-3.6200,-0.9548,7.6585,8.9082,0.0
1741737600.184000,46,5.7782,4.3837,4.6034,6.0899,-1.0868,-2.9790,6.2625,-1.1989,10.6770,15.5089,3.3987,-3.7478,-2.2900,-1.5662,3.6642,7.1285,0.0
1741737600.188000,47,3.1285,0.9583,4.7235,3.8104,-2.8907,-0.4090,5.4344,-3.0956,6.3775,11.2309,3.5518,-2.7315,0.3345,-0.3862,3.6536,4.0188,0.0
1741737600.192000,48,0.7504,3.5777,0.7867,1.8586,-3.3037,-0.9103,3.9495,-2.0849,5.2182,9.8634,3.1902,1.2863,-2.7802,-1.4738,4.8762,3.5514,0.0
1741737600.196000,49,-1.8405,5.2371,-1.6514,-1.0585,-3.2540,-0.7670,0.5884,-1.1830,5.6130,10.9577,3.6169,3.4621,1.3285,-0.9443,4.8813,5.1422,0.0
1741737600.200000,50,-2.8233,7.0619,-6.3073,-1.3404,-4.8368,0.0138,-0.9223,-2.3262,6.6035,7.2120,2.1750,3.6679,0.8435,-2.8437,4.7402,3.0939,0.0
1741737600.204000,51,-1.6568,5.7733,-8.2863,-4.0951,-4.2504,0.2552,-0.0168,-1.8405,4.0156,5.4644,2.8644,5.0307,2.5202,-0.3807,4.6110,1.6316,0.0
1741737600.208000,52,0.1827,5.9826,-4.4403,-1.8263,-1.4259,-0.3252,1.5068,-2.9056,2.0701,2.2739,1.4064,2.9102,2.6138,0.8518,3.1536,-2.0384,0.0
1741737600.212000,53,-0.4900,2.7837,-5.8696,0.2022,-0.2173,-0.6164,0.8008,0.3572,2.2028,-1.5936,2.5040,0.4203,0.8209,3.2400,0.9382,-6.0984,0.0
1741737600.216000,54,0.9129,1.2879,-2.9798,4.9682,3.1904,0.9773,0.3649,2.3855,1.4591,-5.4101,2.0501,-2.8904,2.1948,5.5661,1.6332,-8.5649,0.0
1741737600.220000,55,0.7277,-1.7650,0.4636,5.7724,4.2505,1.3041,1.9209,2.7456,1.3012,-5.2924,2.2220,-3.0351,2.2435,5.7867,0.8904,-8.2187,0.0
1741737600.224000,56,3.5086,-4.9451,-0.5789,8.2008,7.4953,2.4055,2.5576,6.3395,0.6499,-5.2023,0.8838,-5.1133,5.0504,4.5527,-1.0817,-10.0941,0.0
1741737600.228000,57,5.2966,-8.1752,-0.8892,7.2851,7.3152,4.9388,3.3421,5.6037,-1.8248,-5.5782,4.7303,-3.6763,6.0070,5.1251,-1.8784,-12.1131,0.0
1741737600.232000,58,2.4582,-6.9445,-2.8149,7.2284,8.2223,3.9354,3.5335,5.7111,-4.7592,-8.1607,1.0832,-3.8441,4.7123,3.5134,-2.5867,-15.6584,0.0
1741737600.236000,59,1.6983,-4.5215,-3.7440,6.5519,7.5855,4.6804,3.1505,7.7682,-10.6316,-10.6892,2.5818,-0.3945,6.2426,0.9572,-2.0246,-17.1994,0.0
1741737600.240000,60,2.5735,-1.5976,-2.6189,4.7843,6.7032,4.4254,4.2216,7.5716,-11.6353,-9.7060,2.9746,2.4696,10.9372,-0.7414,-5.2231,-15.9527,0.0
1741737600.244000,61,2.2393,0.1538,1.5883,4.8074,9.6951,2.3653,7.9175,6.7692,-6.9779,-2.9608,1.8179,5.9230,6.5313,-3.7858,-3.1416,-11.3472,0.0
1741737600.248000,62,3.8879,2.8470,2.2742,5.2596,9.6593,-0.7295,9.4955,5.7990,1.6662,5.7706,2.9317,5.4906,5.1263,-3.7041,-2.1924,-0.9692,0.0
1741737600.252000,63,6.1765,3.4722,2.9096,5.7165,8.3648,-1.2450,12.5933,8.3653,6.4363,16.0973,3.6026,5.7091,8.5709,-1.6247,2.3409,8.9372,0.0
1741737600.256000,64,5.2001,5.4116,3.4941,6.5913,4.4954,-4.0074,10.4161,5.6764,15.7035,21.5209,3.3423,5.7084,7.2844,1.3915,5.7287,17.5143,0.0
1741737600.260000,65,3.6436,6.2436,5.5291,3.3684,6.5331,-3.7860,9.4776,4.4142,17.1308,25.4789,4.6126,5.4117,7.7054,2.5214,3.5045,22.0401,0.0
1741737600.264000,66,1.9426,5.5142,4.0446,1.5267,4.7261,-2.9844,6.4907,6.8383,18.8482,25.9817,4.4841,6.3869,8.9327,6.5599,4.6719,22.3109,0.0
1741737600.268000,67,2.4815,6.4413,6.6080,-0.6103,2.3162,1.1205,5.1653,6.1289,15.4075,23.9726,3.3508,7.5341,7.3275,7.3091,7.4394,19.5022,0.0
1741737600.272000,68,1.5853,5.7775,4.3278,-1.2053,3.7157,2.5542,1.1573,5.3802,9.9302,16.3714,4.6388,7.7058,7.1071,9.8022,5.0813,18.0377,0.0
1741737600.276000,69,2.9045,4.7673,2.6867,-0.3482,0.7001,3.5955,1.0379,5.3977,10.6258,14.3036,2.4095,6.3728,5.9456,11.1628,6.7142,14.9812,0.0
1741737600.280000,70,2.0176,4.8695,3.0312,0.4723,-2.0951,2.3606,-2.2279,1.6154,9.2722,11.4580,3.5195,6.7273,3.6255,11.4544,6.4087,15.9279,0.0
1741737600.284000,71,3.5827,5.1708,2.6552,1.3209,0.1526,-0.0288,-3.2617,1.8054,11.8105,7.3928,1.6209,7.7854,2.9839,11.6519,8.3137,12.4255,0.0
1741737600.288000,72,3.8900,5.1195,1.5432,1.5915,2.8933,0.2954,-5.3572,0.6644,6.9477,3.0865,4.9600,6.5504,4.0226,14.2981,11.3313,9.4637,0.0
1741737600.292000,73,7.9779,1.0551,-0.9549,2.1580,6.6823,-0.4528,-4.4946,1.4422,2.2619,-5.0433,3.9670,8.0778,0.2918,12.9935,12.6834,9.7192,0.0
1741737600.296000,74,8.7714,-1.8567,2.5111,2.8402,9.1516,-0.5305,-6.6634,-0.0719,2.4974,-9.2716,6.8676,7.4032,0.1594,12.3250,9.0397,-0.2537,0.0
1741737600.300000,75,6.4945,0.0358,-1.0111,5.4476,11.2964,0.1063,-9.4790,-0.7673,0.0374,-12.4922,1.9186,6.0843,-0.1372,13.2051,10.0901,-0.1225,0.0
1741737600.304000,76,3.7202,-1.5484,-3.8922,5.1528,11.0461,1.3644,-7.9374,0.7664,-2.1278,-16.8909,2.5689,3.9759,2.7003,10.8668,11.3613,-4.8854,0.0
1741737600.308000,77,8.8315,-3.3241,-4.2228,4.0549,13.3062,1.7978,-7.2624,3.5132,-6.5887,-14.5185,0.1225,7.5925,2.3074,9.0696,10.1981,-4.9596,0.0
1741737600.312000,78,7.9644,-3.3699,-3.3630,7.2422,10.7724,7.3183,-3.9074,6.1556,-8.1712,-15.4897,-1.2213,12.2566,4.3190,6.5450,10.5729,-7.9668,0.0
1741737600.316000,79,10.4861,-0.1764,-3.4259,8.0514,8.3093,8.2320,-3.6702,7.9984,-13.4421,-14.5534,-2.2813,10.8653,4.3657,5.2354,7.4572,-14.2098,0.0
1741737600.320000,80,11.4005,2.6628,-1.7415,9.9834,6.3558,9.0362,-0.0863,7.8744,-16.4317,-16.3607,-4.4052,12.2282,1.7857,4.5478,2.5470,-18.5286,0.0
1741737600.324000,81,15.6954,2.0365,-0.3489,13.3807,6.0444,9.6290,3.7864,8.1390,-15.3463,-13.4936,-4.5843,8.7478,0.3819,1.7577,-1.4997,-20.8570,0.0
1741737600.328000,82,14.6597,2.8092,1.4936,13.5344,5.5130,8.9067,5.4609,11.4581,-9.3167,-4.9470,-2.6162,8.4923,1.5677,1.4878,-2.2571,-16.2447,0.0
1741737600.332000,83,14.1684,4.4759,3.7204,11.3454,8.3181,8.9885,8.1476,9.9502,-1.3249,2.6617,-2.4513,7.1883,6.1238,1.6804,-0.2386,-6.4168,0.0
1741737600.336000,84,13.5143,0.6030,4.2310,8.9499,7.0036,6.5881,11.5815,9.5889,9.3298,12.4732,1.0152,5.6890,7.2852,0.4284,2.5450,6.4252,0.0
1741737600.340000,85,12.4065,3.5416,4.0738,7.7817,7.4175,3.2743,10.8396,8.9383,15.0167,21.5134,0.6891,4.7084,6.8186,-0.6904,1.4326,16.5239,0.0
1741737600.344000,86,10.6007,5.5746,3.3855,5.3609,7.5596,-1.2004,9.6180,4.7222,18.9741,24.0986,0.0703,4.1729,10.5293,-1.6107,1.8931,20.4916,0.0
1741737600.348000,87,7.9292,6.9409,2.8337,4.4775,6.1032,-2.9067,7.7974,-0.5656,20.2476,24.3413,-1.9666,5.9324,12.2768,0.1168,0.8377,22.2642,0.0
1741737600.352000,88,4.2224,7.8924,3.3484,-0.1086,3.9379,-6.2892,7.0770,-2.8930,17.9194,22.7449,-2.8975,4.2999,13.3739,-0.5919,-1.7045,21.4174,0.0
1741737600.356000,89,4.4645,6.8874,3.7713,-3.5458,1.2115,-10.2377,6.5144,-6.4497,15.4211,19.3351,0.2340,4.5960,11.7321,0.0701,-0.6152,19.8288,0.0
1741737600.360000,90,1.8534,5.9380,4.5420,-1.7951,-0.2923,-10.2007,6.2405,-7.8298,15.6225,19.5318,2.3090,2.9381,8.3764,0.9536,-1.7229,19.9672,0.0
1741737600.364000,91,1.7770,4.8761,4.8652,-1.0592,-1.7248,-11.0288,6.6002,-10.5190,17.0831,16.6650,5.0160,0.5441,2.6106,3.8896,-0.3522,15.8736,0.0
1741737600.368000,92,2.8700,2.1186,1.9925,-2.6218,-4.2811,-8.3583,3.6230,-8.0851,16.4981,12.0064,6.7704,-1.5461,-0.5242,5.5033,2.9426,13.7502,0.0
1741737600.372000,93,0.2083,2.1630,1.2347,-3.8437,-5.9425,-6.5450,0.6504,-3.9801,14.5172,8.5396,9.3652,-2.6086,-3.2339,6.4654,5.5397,11.3998,0.0
1741737600.376000,94,-1.6322,-2.1330,-1.0030,-7.1526,-9.6076,-0.2672,-0.8116,-3.3409,9.6215,1.8825,7.8036,0.1890,-1.2294,6.4581,6.7578,7.6511,0.0
1741737600.380000,95,-3.6298,-3.1883,-4.9845,-5.7727,-7.0906,5.6148,-3.0359,1.7017,6.8985,-3.2526,8.7831,-0.5223,-1.9678,8.1392,8.3320,5.1321,0.0
1741737600.384000,96,-4.5719,-4.3930,-7.1255,-6.1369,-8.2220,10.5397,-6.6873,5.6898,2.3316,-7.7463,5.4519,1.1281,-3.2609,6.8806,10.3256,-0.2627,0.0
1741737600.388000,97,-4.4263,-1.8541,-6.0796,-5.1761,-5.0522,9.5858,-8.3317,7.9408,-5.3313,-12.0866,0.8474,2.7937,-1.5065,4.0338,9.8690,-2.5856,0.0
1741737600.392000,98,-1.6087,-0.0881,-4.1803,-3.6006,-3.2900,9.6798,-7.4618,9.2445,-12.1482,-14.4276,-2.6223,4.2855,-0.6210,2.1714,7.3902,-7.3460,0.0
1741737600.396000,99,2.6102,1.0913,-0.0423,0.4554,1.7231,10.5027,-6.3849,8.1374,-17.8032,-18.7144,-6.6796,7.0123,3.6922,0.7396,2.1118,-11.8967,0.0
1741737600.400000,100,4.4964,-1.1854,1.4937,3.7319,3.5932,9.0630,-2.3573,6.5956,-21.7749,-20.2936,-7.1007,7.4549,3.4389,1.4495,-1.3098,-20.3298,0.0
1741737600.404000,101,8.3539,-1.5794,4.2901,4.8370,9.1073,6.7022,0.1288,6.0648,-25.5399,-24.4196,-6.1547,3.9799,6.9926,1.9028,-3.6392,-23.7290,0.0
1741737600.408000,102,8.6378,-2.3589,6.2692,6.8386,10.8472,2.3066,3.2518,3.5742,-26.9227,-19.9696,-4.4730,3.8072,8.8514,-2.4975,-4.4997,-25.8163,0.0
1741737600.412000,103,9.3046,-1.4161,6.3713,5.8468,12.4163,-0.3533,8.9032,3.4649,-19.6794,-10.8023,-1.6231,7.0201,8.7703,0.0599,-5.8355,-18.8675,0.0
1741737600.416000,104,6.6270,2.5828,7.0658,5.2569,12.3086,3.4470,9.8621,4.8423,-10.4071,2.3034,2.3235,7.1482,10.3197,-0.8530,-2.8134,-6.3351,0.0
1741737600.420000,105,3.7842,3.8367,4.3760,0.7108,7.7644,3.6310,12.2055,8.2784,0.9152,13.2069,5.4523,11.0002,8.9829,-1.0741,0.6719,5.1876,0.0
1741737600.424000,106,-0.6460,5.4862,3.4628,-1.4844,3.7465,3.9022,16.3912,6.8096,10.4874,22.3246,7.7552,13.8267,6.5488,-2.3797,2.1990,17.4811,0.0
1741737600.428000,107,-0.2706,8.8958,-0.6868,-3.9872,-1.0775,5.8360,12.6951,7.6879,16.8449,26.6715,9.7722,12.9169,2.8407,-3.1655,5.5790,22.2134,0.0
1741737600.432000,108,-4.6316,14.9731,-2.2185,-5.8451,-3.9709,2.4709,10.5620,5.8339,15.1319,27.4060,10.3973,12.1646,1.0613,-0.1934,6.1926,24.3962,0.0
1741737600.436000,109,-6.0887,16.2355,-0.2738,-7.7646,-3.5420,2.7508,7.0493,4.9167,15.8434,22.1210,8.4230,11.2619,0.4343,-0.5785,7.2603,22.0676,0.0
1741737600.440000,110,-3.9759,12.7515,1.9399,-6.4652,-4.8721,1.3862,3.3165,3.1660,14.9897,19.4939,9.8278,9.2391,0.3288,0.3927,7.6921,19.8084,0.0
1741737600.444000,111,-1.9228,8.4667,1.6144,-2.7396,-2.2339,-0.3441,-0.9719,1.9662,15.9655,16.4759,10.7055,4.6469,-1.6460,4.8704,3.2948,17.3051,0.0
1741737600.448000,112,-1.1638,3.8905,3.8230,-1.6921,0.2188,-2.5470,-6.7794,1.0827,13.5194,8.5907,6.0089,-2.9075,-2.0032,6.7767,2.6052,16.7371,0.0
1741737600.452000,113,0.5492,-1.5124,1.9289,1.6830,1.3419,-3.0635,-8.3039,-2.8672,14.6358,3.3642,1.0622,-7.7384,-0.0659,8.0065,3.7985,12.0875,0.0
1741737600.456000,114,0.3793,-4.0300,3.5841,4.7802,3.0249,-3.9200,-8.7970,-3.3079,8.5102,-2.2527,-0.7845,-9.4152,1.4556,10.3834,6.4532,11.3314,0.0
1741737600.460000,115,1.0631,-3.4398,3.3921,6.6308,4.5975,-2.0326,-10.1593,-1.3637,4.4625,-5.0284,-4.6151,-5.0907,1.2760,10.3787,4.7194,8.9720,0.0
1741737600.464000,116,1.8118,-6.6698,2.9523,4.7352,2.1118,-2.0371,-5.1537,-0.1209,1.5772,-8.2272,-2.9014,-4.7712,-0.4818,7.2698,2.9643,4.1958,0.0
1741737600.468000,117,2.0149,-5.7506,-0.5409,4.9507,4.3302,-1.8777,-4.4064,0.4892,0.9844,-10.2426,-3.6414,-5.1307,-3.2890,6.1865,4.1705,-0.0667,0.0
1741737600.472000,118,4.2984,-5.9771,-2.4965,5.7799,5.4745,-2.1747,-3.1232,-2.0529,-5.4359,-12.6956,-3.1334,-2.4217,-3.4881,1.4992,1.2412,-4.0634,0.0
1741737600.476000,119,0.7493,-4.6070,-8.5040,4.5583,7.1315,-2.8156,-1.8807,-0.2028,-6.3661,-12.9186,-3.2473,1.9322,-6.8156,-2.4671,1.9268,-7.7237,0.0
1741737600.480000,120,0.1402,-3.1058,-7.7464,3.2289,6.1201,-2.2009,-0.9562,4.0962,-10.4936,-14.3858,-0.0715,2.6681,-7.2098,-2.4295,1.4029,-12.7636,0.0
1741737600.484000,121,-1.5128,0.2964,-10.3591,-0.3591,6.6189,-1.2471,0.3902,2.0497,-14.6015,-15.8436,0.3371,6.3895,-8.4183,-1.5630,1.6516,-20.0659,0.0
1741737600.488000,122,-2.5232,-0.8341,-15.1011,0.5266,8.3235,-0.6732,0.6818,3.4142,-16.7803,-16.5736,1.4542,7.5804,-8.8291,-1.3532,0.5728,-23.5941,0.0
1741737600.492000,123,-3.3681,-1.8581,-14.9000,-1.9650,6.8996,-2.2617,-1.4888,1.7297,-17.8445,-13.8774,-3.5406,8.1169,-5.9927,-1.7363,0.1399,-25.2662,0.0
1741737600.496000,124,1.7191,-0.3831,-12.1901,-1.2692,7.4139,-2.2225,-5.3358,2.3130,-16.5648,-6.5125,-7.8378,8.1444,-3.0995,0.6462,2.4163,-19.9631,0.0
1741737600.500000,125,3.4093,-1.2388,-10.8218,-0.9483,7.9501,-6.3047,-4.2649,5.1027,-5.8994,3.4000,-11.1206,6.0963,-0.0122,1.5683,1.9752,-10.2951,0.0
1741737600.504000,126,3.5895,-3.9118,-7.0813,0.4012,4.4202,-5.4789,-0.6295,3.9699,0.4852,14.4624,-12.7524,3.2555,4.1491,4.5428,1.9136,1.6274,0.0
1741737600.508000,127,7.4248,-5.7977,-4.9974,6.4647,3.2758,-9.0646,0.3377,2.8024,6.6932,19.5232,-13.0567,1.5088,5.9135,8.1835,-0.2286,8.2734,0.0
1741737600.512000,128,11.3661,-9.4339,0.1708,7.7195,4.1021,-11.6787,-0.4002,0.4240,11.6699,20.6443,-14.1575,-1.9245,6.9073,6.0329,-1.9057,11.5402,0.0
1741737600.516000,129,14.0082,-11.4844,3.0086,8.8795,6.1275,-13.8392,0.5724,-2.4773,11.9751,21.2215,-13.1960,-3.4262,5.6247,7.2440,-5.6375,12.4416,0.0
1741737600.520000,130,14.2485,-12.7527,3.3446,10.1090,4.8485,-13.4688,0.1843,-6.4329,13.3381,17.7108,-9.7840,-4.9224,7.8493,7.2299,-3.2663,13.0239,0.0
1741737600.524000,131,11.9780,-13.9723,1.1760,8.2839,3.0136,-13.6309,-0.6773,-2.4839,15.2135,13.4039,-5.0839,-3.5525,6.7086,5.2394,-2.1815,14.0370,0.0
1741737600.528000,132,2.5677,-13.0904,-3.7915,1.4806,0.2713,-11.5763,-4.5065,-2.4350,13.2200,10.3286,-0.2032,-2.8275,5.0195,4.7653,-2.3964,17.9869,0.0
1741737600.532000,133,1.1336,-11.9617,-8.2452,0.5178,-0.1464,-10.5318,-2.6121,-0.1780,18.3929,7.9543,2.6411,-1.2678,3.2395,4.1082,-2.0775,18.0593,0.0
1741737600.536000,134,-0.8837,-10.8032,-12.6932,-3.2647,0.2971,-9.5574,-4.9074,1.6592,16.8438,4.6095,1.1497,3.1523,0.8846,2.6966,2.7782,16.1527,0.0
1741737600.540000,135,-4.5686,-6.0273,-15.3716,-5.6339,-0.4501,-8.3715,-8.3747,0.9634,13.3663,2.5837,-1.7655,7.0325,2.6828,-3.0700,4.8486,16.1124,0.0
1741737600.544000,136,-4.0867,-5.4286,-14.2517,-6.4866,-1.6015,-2.7123,-11.1167,3.3161,9.0588,-0.7569,-3.4482,8.4085,0.3269,-0.8862,4.3114,13.6302,0.0
1741737600.548000,137,-3.8041,-5.0212,-15.8853,-3.0741,-2.7189,-3.8305,-8.9777,7.0161,6.4312,-5.0702,-4.6520,5.9724,-0.1636,-0.5260,4.1112,7.2172,0.0
1741737600.552000,138,-1.0655,-7.2955,-15.2940,1.0687,-1.4613,-4.8069,-8.8194,4.0909,2.5120,-9.2093,-6.0398,1.1695,-1.8970,0.3370,3.1485,-1.2653,0.0
1741737600.556000,139,2.3440,-9.6721,-10.3552,3.6370,3.4882,-4.5332,-7.9696,5.9523,-0.9242,-13.5672,-7.5315,-1.9063,-0.5036,1.4495,1.1608,-5.4975,0.0
1741737600.560000,140,4.7289,-11.7619,-6.7188,4.2579,8.8735,-4.2944,-8.4366,5.6726,-7.1042,-14.1079,-8.6972,-2.3156,0.8574,3.3115,-0.8600,-10.4097,0.0
1741737600.564000,141,6.3980,-14.9406,-4.0371,6.3998,7.9138,-6.1912,-6.5651,6.3923,-11.1489,-17.5678,-10.9774,-4.2540,3.7142,2.5053,-1.0439,-16.7908,0.0
1741737600.568000,142,7.4605,-15.7049,-6.2705,4.5739,8.6012,-4.1071,-5.1131,3.6087,-16.1991,-15.4385,-10.3942,-1.5214,1.7599,1.5885,-1.9770,-23.3389,0.0
1741737600.572000,143,7.1331,-18.7204,-5.0103,5.2280,6.8674,-5.0279,-1.7076,1.1853,-18.6509,-15.7642,-11.1563,-2.9669,4.1083,1.1279,-5.2747,-25.2276,0.0
1741737600.576000,144,7.9028,-14.3381,-6.2880,3.4739,4.3086,-8.1140,-1.5173,2.1069,-16.6621,-11.8208,-11.0393,-0.6214,3.2939,-0.3565,-5.6157,-23.2365,0.0
1741737600.580000,145,5.9578,-11.4980,-5.1630,0.4431,3.9354,-7.3422,-0.0939,2.6240,-12.0390,-3.1412,-10.0424,3.5212,6.8851,-5.7267,-3.4428,-13.1135,0.0
1741737600.584000,146,2.3339,-6.7971,-5.3593,-2.7581,1.4806,-10.3313,2.1514,1.4854,-4.6697,8.2263,-8.2000,9.8447,2.7503,-4.9591,-1.3589,-0.3810,0.0
1741737600.588000,147,0.5215,-3.7439,-3.7994,-5.6659,-3.9936,-11.2843,3.0898,2.7291,5.1894,18.5150,-7.9841,10.2094,4.6177,-7.0322,0.3841,13.1123,0.0
1741737600.592000,148,1.6998,-4.1742,-5.8544,-4.5714,-3.3876,-12.1132,3.3952,4.6379,12.0990,22.2724,-4.6577,6.0240,0.3201,-9.1057,0.8268,18.1217,0.0
1741737600.596000,149,2.1026,-2.6960,-5.4382,-3.7176,-5.2670,-9.6930,0.9445,-0.2137,16.0698,19.8866,-3.0238,7.8345,1.6095,-5.7376,3.1979,19.1062,0.0
1741737600.600000,150,1.6520,-2.6535,-3.1501,-8.4306,-5.2978,-9.0067,-5.5544,-1.0756,11.7758,17.8168,-2.2582,4.2656,2.9474,-3.2693,2.6017,18.1779,0.0
1741737600.604000,151,-3.9518,-2.0649,-4.2201,-9.2887,-6.8553,-7.2111,-7.6664,-1.4095,11.3933,12.7525,-2.1796,3.2977,3.9435,1.3989,3.0684,16.1205,0.0
1741737600.608000,152,-4.2229,-6.6310,-1.5452,-12.8735,-8.5024,-5.2574,-9.1332,-0.4524,8.2519,5.4806,-3.2069,0.8447,3.4702,3.3802,4.4439,15.2371,0.0
1741737600.612000,153,-4.8627,-5.7715,-5.8013,-11.4358,-8.5204,-1.5785,-9.4779,1.4960,7.1334,2.1730,-6.2365,1.4568,4.8672,7.8944,2.4577,14.1009,0.0
1741737600.616000,154,-2.6329,-12.1670,-4.3745,-8.8873,-6.1996,-3.0232,-13.3580,1.1879,8.4792,-0.0891,-7.5157,-1.6800,2.8346,4.9489,3.2447,13.5886,0.0
1741737600.620000,155,-0.2670,-10.5834,-7.2538,-7.3650,-5.3707,-4.5268,-13.1682,2.8796,4.4062,-3.8670,-9.1330,-1.7948,1.8699,6.3262,3.5171,10.5161,0.0
1741737600.624000,156,-2.0047,-8.6605,-4.2835,-6.0419,-0.5173,-4.6719,-10.9434,-3.0593,1.4666,-10.0551,-10.8292,-1.8020,0.7784,6.3673,1.8685,7.6715,0.0
1741737600.628000,157,-0.6309,-10.1507,-3.6577,-4.2180,0.9101,-4.4781,-10.3371,-1.1794,-4.3569,-13.8953,-9.1730,1.2391,-0.5472,5.5985,0.7123,3.6959,0.0
1741737600.632000,158,-2.7831,-10.3115,-2.7511,-6.1229,4.6183,-7.3250,-6.9304,-2.7373,-6.8437,-18.3022,-3.6591,0.7903,-3.1422,4.5695,1.5386,-3.4135,0.0
1741737600.636000,159,-3.5039,-9.6246,-5.2822,-5.2302,3.4210,-6.4452,-7.6263,-4.8081,-6.5854,-20.1205,-2.4375,0.6757,-5.8406,2.7807,0.7337,-4.3829,0.0
1741737600.640000,160,-4.5535,-9.2664,-6.3668,-3.2503,7.0134,-6.9278,-5.7155,-3.3524,-8.3980,-19.6098,-1.3817,1.1288,-4.0403,0.2798,1.6427,-5.7772,0.0
1741737600.644000,161,-3.6958,-5.9871,-7.6864,-6.7610,3.3064,-3.0900,-7.9979,-1.1229,-12.4697,-19.0901,-3.6761,2.9043,-5.2521,-1.1892,1.5311,-12.9552,0.0
1741737600.648000,162,-3.6021,-3.4506,-8.4525,-8.0650,2.2729,0.2846,-7.2397,-2.5107,-19.5706,-21.5924,-4.7326,5.4240,-5.5539,-3.1919,0.3341,-15.2018,0.0
1741737600.652000,163,-5.2499,-2.8803,-7.8937,-7.6453,2.2469,1.2038,-6.4231,1.2633,-21.9061,-19.5498,-4.8073,4.4367,-5.1998,-2.2069,-1.8390,-19.0480,0.0
1741737600.656000,164,-3.3347,-0.4849,-8.5383,-10.0915,-3.3243,4.4648,-6.5937,0.0717,-26.0623,-19.4189,-6.8456,7.0235,-5.1377,-4.3347,-4.2241,-22.9584,0.0
1741737600.660000,165,1.2821,0.1800,-4.0138,-3.7755,-3.9691,3.2308,-6.7330,1.2670,-23.0014,-17.3674,-7.1675,3.9822,-5.3905,-3.4827,-7.7413,-20.2666,0.0
1741737600.664000,166,1.7733,1.4376,1.8703,-0.7739,-4.6593,2.1678,-4.3391,0.1794,-17.9934,-6.5203,-8.6163,1.9255,-5.9785,-3.2865,-9.3630,-14.9454,0.0
1741737600.668000,167,1.8309,-1.6274,5.4598,-3.0072,-4.0565,-1.4014,-2.0034,-2.2258,-8.3201,1.0499,-9.1543,-3.1583,-5.1389,-2.1758,-5.6058,-2.0034,0.0
1741737600.672000,168,1.7638,-2.5690,6.4140,-3.1715,-2.7140,-1.7275,-0.4730,-0.9303,3.3971,7.2979,-6.8928,-3.5258,-2.2492,-4.3188,-5.8845,8.7466,0.0
1741737600.676000,169,4.3563,-4.7681,4.6406,-1.7100,-5.5535,-4.3607,-0.1947,-4.4144,8.1761,13.1912,-6.3321,-4.5791,-2.8810,-0.8070,-4.5594,12.4930,0.0
1741737600.680000,170,1.2491,-2.9277,6.2824,-3.6526,-2.0194,-6.5329,-2.4585,-6.5282,10.4503,9.0359,-6.2062,-7.1400,-2.2717,0.4315,-5.8276,17.3823,0.0
1741737600.684000,171,-1.3161,-2.7943,3.3716,-5.7402,-1.9675,-8.2986,-3.2923,-8.8103,9.3444,8.5978,-6.3602,-8.4218,-1.2464,-1.4919,-3.5638,14.8646,0.0
1741737600.688000,172,-5.2469,-3.0650,3.3112,-10.6036,-3.9766,-10.1326,-6.3732,-10.5526,8.4704,7.9432,-4.9349,-7.4746,-3.2569,-5.2988,-3.8565,14.4437,0.0
1741737600.692000,173,-5.7714,0.1460,0.5922,-12.2118,-6.1191,-9.1517,-6.4916,-14.5712,4.2806,4.5309,-3.4364,-2.5759,-4.2759,-4.6686,-4.4783,12.4609,0.0
1741737600.696000,174,-8.4010,-2.1367,-0.6347,-12.0759,-6.7044,-8.3399,-4.0430,-14.5864,10.5062,2.7103,-3.0440,-5.6917,-5.8019,-5.2755,-5.9436,11.4462,0.0
1741737600.700000,175,-9.2160,-0.2319,-5.7893,-13.2922,-9.3140,-8.2168,-4.0184,-16.3613,8.2106,0.9955,0.5881,-6.5749,-8.5671,-6.4595,-4.3296,6.6336,0.0
1741737600.704000,176,-10.0084,-0.8753,-5.7920,-13.0035,-8.7378,-6.9690,-3.6903,-14.6742,6.4171,-2.9525,-0.2665,-7.8467,-14.1614,-7.7243,-3.7601,4.0886,0.0
1741737600.708000,177,-8.6440,-0.3906,-5.5325,-10.9155,-10.4225,-5.2359,-4.8476,-12.9187,2.6284,-4.8050,0.1381,-7.4220,-14.2135,-5.2390,-0.1151,0.3721,0.0
1741737600.712000,178,-11.7131,-1.7533,-5.0602,-11.0566,-10.4797,-1.3643,-2.8281,-9.1365,-1.3000,-10.2977,1.8646,-8.3265,-16.0616,-2.2107,-2.3647,-6.9529,0.0
1741737600.716000,179,-11.9012,-4.9955,-5.8059,-9.6956,-8.9196,2.2505,-6.3666,-6.7676,-5.2447,-10.8565,0.8504,-9.5491,-15.3290,-2.1840,-0.7553,-12.9279,0.0
1741737600.720000,180,-8.4986,-6.7259,-7.6969,-9.3909,-8.4449,2.3275,-7.9057,-6.3343,-7.7729,-15.3048,-2.7604,-11.4861,-12.3227,-0.3068,-1.0287,-15.1935,0.0
1741737600.724000,181,-7.5574,-8.0102,-7.1884,-6.9280,-8.2340,4.0564,-6.1524,-4.1292,-14.5910,-19.9616,-4.7991,-11.2188,-9.5374,-1.6529,-2.2013,-19.5850,0.0
1741737600.728000,182,-6.5349,-7.0393,-3.4861,-9.0368,-9.0227,2.9924,-7.7413,-2.9775,-21.3368,-17.3684,-10.8459,-11.3249,-9.7015,-2.5051,-4.9942,-23.7735,0.0
1741737600.732000,183,-6.2377,-7.0533,0.2865,-8.1038,-5.1101,4.3151,-5.3325,-4.4499,-26.1356,-20.8986,-13.1320,-8.0942,-5.0353,-4.2754,-10.4763,-29.3465,0.0
1741737600.736000,184,-5.1658,-4.6056,2.9649,-4.8947,-4.4331,3.0687,-2.6836,-5.1927,-30.0889,-21.0613,-14.4599,-7.9680,-2.2655,-5.0171,-13.2899,-32.9786,0.0
1741737600.740000,185,0.1780,-5.4270,6.0438,-2.0237,-4.1200,2.3187,-1.5075,-5.0376,-29.1761,-18.0867,-10.1327,-6.8389,0.4838,-7.1085,-16.4641,-31.6545,0.0
1741737600.744000,186,-0.5724,-4.2178,8.1499,1.1712,-2.4563,0.3829,2.2032,-7.3174,-23.8616,-16.5642,-8.7691,-7.3584,-0.9861,-5.6947,-19.2142,-26.6978,0.0
1741737600.748000,187,1.5874,-4.6502,6.2332,1.4289,-0.1979,-0.6509,7.0436,-4.9137,-13.6609,-5.3629,-4.9239,-7.6258,-0.2248,-9.3933,-17.4252,-15.4907,0.0
1741737600.752000,188,-2.2087,-2.5020,8.3440,-3.5514,-3.2563,-1.6080,11.3660,-3.8616,-4.4679,4.7229,-0.7789,-7.7308,2.0455,-8.4511,-12.2276,-1.7133,0.0
1741737600.756000,189,-6.2798,2.4144,5.1462,-8.5680,-1.2769,0.8062,10.0546,-1.1819,4.8508,14.6261,4.5490,-2.2338,-0.0355,-7.3888,-6.9912,8.5573,0.0
1741737600.760000,190,-10.2129,3.4803,2.7608,-10.7233,-3.6467,2.3418,12.2499,0.7561,11.0226,17.7415,8.6987,-1.9743,-1.5820,-7.7375,-3.3494,15.8688,0.0
1741737600.764000,191,-13.5928,4.4813,-0.6887,-14.7064,-4.7658,3.9436,8.8425,-0.1527,14.4971,19.3969,7.6129,-1.2901,-3.1267,-5.6162,-5.5187,19.7780,0.0
1741737600.768000,192,-14.9012,7.4692,1.5035,-13.6849,-6.3284,6.4972,8.0468,0.8893,12.6221,16.5158,8.7817,-3.4060,-4.4114,-6.4851,-1.8115,18.4644,0.0
1741737600.772000,193,-16.9871,8.8367,-0.1924,-14.5104,-7.3909,3.1388,5.8952,-0.6918,11.8572,11.7172,8.0265,-3.6711,-3.3701,-7.8904,-1.7502,13.0055,0.0
1741737600.776000,194,-19.0796,10.3190,-0.6533,-13.0625,-8.2864,2.2049,3.4488,-2.2136,9.6960,10.9357,7.6804,-5.6130,-5.7613,-6.7211,-1.0530,12.1038,0.0
1741737600.780000,195,-13.2215,8.2861,4.8778,-8.5503,-3.9690,0.9730,3.1559,-3.5565,8.5572,6.7723,9.1501,-8.0225,-5.9610,-2.0623,-0.2648,8.8348,0.0
1741737600.784000,196,-10.1529,3.7269,6.0118,-4.7916,-2.6103,0.7073,2.0505,-5.4803,6.1431,4.1292,9.9421,-12.6283,-7.9543,-1.5397,0.3387,4.7428,0.0
1741737600.788000,197,-5.3659,-0.5962,8.3482,-2.4344,-0.3566,0.6801,-0.8024,-2.5239,4.1457,1.0317,5.1356,-14.1648,-6.1333,-0.6771,0.5419,1.1264,0.0
1741737600.792000,198,-4.2438,-0.8051,7.9069,-1.1722,-1.9380,-1.1233,0.5979,-8.5478,-0.8333,-1.3931,3.1482,-13.9909,-8.1238,0.0680,-0.7127,-1.3555,0.0
1741737600.796000,199,-4.1754,-3.9889,8.3474,1.0386,-2.0133,0.9579,-0.7757,-5.2010,-4.0511,-5.5954,0.5447,-15.6321,-7.1536,0.1669,-1.6397,-6.6421,0.0
1741737600.800000,200,-3.5411,-2.5388,7.6583,0.6574,-3.5551,3.2737,-2.0227,-3.6855,-7.9829,-7.1902,1.9487,-9.7345,-5.4627,-0.7449,0.0847,-8.4237,0.0
1741737600.804000,201,-4.1695,-3.0098,6.3803,0.9597,-4.0653,5.9872,-1.8812,-3.6607,-11.4837,-8.1300,0.8517,-8.1914,-5.0182,-1.9700,-0.0680,-10.4093,0.0
1741737600.808000,202,-5.0685,1.6806,6.4055,-0.0807,-3.0626,5.4752,-1.0051,-1.3325,-13.0482,-10.1163,0.3909,-5.3105,-7.0822,-4.3343,-1.6279,-13.9265,0.0
1741737600.812000,203,-2.3054,3.7452,2.0686,-0.8574,-3.5313,4.3085,0.7558,-2.4268,-13.5815,-12.5819,0.4645,-0.6145,-10.3649,-5.9410,-1.9667,-15.3169,0.0
1741737600.816000,204,-3.2374,4.1963,1.7968,-1.3574,-5.1292,2.6807,0.0267,-4.7355,-17.5908,-14.8925,0.5864,1.1867,-7.9456,-9.1677,-3.6320,-21.1530,0.0
1741737600.820000,205,-3.7201,6.4274,0.8423,-2.3690,-3.5228,2.8361,-4.0378,-5.2022,-19.1778,-16.0265,0.9993,1.4060,-8.6479,-9.1914,-4.3640,-27.7165,0.0
1741737600.824000,206,-3.1748,5.8629,-2.4016,-1.9762,-3.1674,0.2087,-1.1344,-2.6490,-18.7408,-17.6835,4.0283,2.2676,-7.3855,-4.0738,-1.9478,-27.2048,0.0
1741737600.828000,207,-0.7524,5.4566,0.4627,-0.7327,-0.6216,0.0819,-1.8523,-4.2216,-14.2052,-14.7050,4.7611,0.8248,-2.9302,-3.0226,-2.6864,-22.1245,0.0
1741737600.832000,208,0.1237,4.8691,-2.3722,-1.7494,0.4109,0.7804,0.0212,-2.7348,-6.4759,-6.1358,1.3886,-1.5762,-3.8878,-2.4871,0.6068,-11.7657,0.0
1741737600.836000,209,-1.5790,4.8318,-0.4844,-0.3701,1.9734,0.0333,1.5459,-1.3998,2.1603,2.1284,1.3070,1.0435,-0.4573,-0.6949,2.7555,-1.2548,0.0
1741737600.840000,210,-0.3972,1.0995,0.5428,1.5730,-2.0072,3.0951,5.0887,3.4008,11.2152,13.1740,1.4204,-1.9204,0.7789,-1.5201,4.3233,8.9262,0.0
1741737600.844000,211,-2.0767,-0.3860,-0.7679,1.5226,-1.9953,1.7649,4.3549,2.2378,11.2549,17.3554,-0.1609,-5.4782,3.5436,-1.1365,3.2217,13.0462,0.0
1741737600.848000,212,2.8510,-0.1497,-0.3121,4.1997,-3.3346,1.7684,4.7501,3.3743,13.6100,16.5591,-0.8634,-2.8861,3.7142,-0.0908,2.8791,13.6800,0.0
1741737600.852000,213,2.8168,-1.6097,3.4438,3.3869,-3.7464,2.2857,6.6026,3.5773,12.4549,14.2521,0.3424,-6.5469,1.0924,-2.7413,-0.4766,11.7949,0.0
1741737600.856000,214,1.2652,-0.1497,5.5428,4.3025,-2.0743,-0.7760,6.6404,1.5318,12.1560,11.9486,2.8070,-7.5446,0.8476,-4.8216,-1.5806,7.6839,0.0
1741737600.860000,215,2.5224,-0.6308,5.8350,5.1813,2.3855,-0.9485,9.1014,3.6014,13.1884,12.4071,4.0256,-6.7654,0.0931,-5.1587,-1.9320,9.8987,0.0
1741737600.864000,216,-0.0064,-1.9062,4.1359,4.4890,-0.1293,-0.9064,6.7567,3.2257,14.6819,9.7793,4.8864,-3.7736,-2.1230,-7.4754,-0.2193,11.5571,0.0
1741737600.868000,217,-0.7247,-2.1158,0.8063,3.7264,-0.9675,0.1697,4.9134,1.3975,12.7251,10.4688,6.0118,-4.9949,-1.7655,-6.9301,1.1683,9.3434,0.0
1741737600.872000,218,-3.5653,0.7222,-1.4609,-1.3131,-0.1295,-2.8713,4.2656,-1.0416,7.2200,9.6076,3.7347,-1.1650,1.2451,-9.1669,-0.3722,7.1176,0.0
1741737600.876000,219,-6.3474,-0.4058,-0.6395,-2.1854,-0.9797,-1.4540,2.4400,0.5159,3.5306,4.7472,3.0236,-0.6631,2.0261,-7.3190,0.3840,4.3751,0.0
1741737600.880000,220,-6.1656,6.6857,2.8589,-3.5351,-0.1789,-0.9007,3.5812,2.7710,-1.0814,2.8685,1.3609,1.5409,3.2172,-6.5770,-1.6258,0.8406,0.0
1741737600.884000,221,-8.0035,6.5846,4.1666,-3.5295,-2.9467,-0.5358,2.9788,1.1060,-2.5280,3.4209,0.9842,1.9954,5.3455,-5.4147,-1.7116,-0.4369,0.0
1741737600.888000,222,-2.0216,5.9192,1.6018,-1.8942,-4.7579,-0.0727,4.2842,-0.3999,-4.4564,1.7721,-2.7279,1.5311,1.9780,-4.9308,-4.1435,-3.8638,0.0
1741737600.892000,223,-3.6873,0.6106,4.2094,-1.2130,-0.8371,-2.1257,3.0214,-1.3408,-7.5194,-3.2057,-1.6967,-0.5229,1.2995,-1.8819,-3.7869,-8.8891,0.0
1741737600.896000,224,-0.2411,2.2390,6.6503,-0.2086,-1.3362,-0.1415,1.5991,-3.8353,-9.9712,-5.4508,-1.3627,-1.4510,1.3089,-0.8458,-3.0312,-12.5811,0.0
1741737600.900000,225,-1.5932,1.5420,7.5359,-0.7934,-3.3598,-2.2928,0.5217,-1.6599,-13.7179,-10.0495,1.0625,-0.0978,1.9867,1.1590,-4.8628,-15.7391,0.0
1741737600.904000,226,-2.6975,0.3006,6.8713,-3.3544,-1.5442,-2.1494,-1.3136,-2.9281,-16.8058,-12.4428,4.0889,0.0980,2.7729,5.5360,-0.7949,-17.9727,0.0
1741737600.908000,227,-4.9307,-1.2644,4.5355,-4.3913,1.4251,0.1083,-2.9246,-1.2800,-15.9900,-13.2695,3.6245,0.1951,-1.7122,7.2109,-0.9301,-17.0537,0.0
1741737600.912000,228,-4.0229,-1.7940,3.5125,-5.2848,1.5594,3.9482,-3.7035,0.0044,-12.7447,-10.6300,4.2397,2.8773,0.6188,8.2136,1.0751,-9.2757,0.0
1741737600.916000,229,-5.8619,-2.0911,0.7228,-4.9202,4.8479,3.2779,-5.0796,-1.5494,-4.5833,-2.8804,4.2928,5.5424,2.0264,5.8160,7.0788,-1.2066,0.0
1741737600.920000,230,-3.8256,3.8369,-1.0591,-6.0727,3.4330,1.1216,-4.2899,0.5771,4.0947,1.7601,0.1820,7.4378,3.8211,6.6165,10.1413,9.2891,0.0
1741737600.924000,231,-4.9785,4.1308,1.9681,-3.9996,4.1625,1.8944,-0.7679,1.9936,9.9687,8.7589,2.0419,7.9227,2.5963,6.8729,9.6365,19.1658,0.0
1741737600.928000,232,-3.0990,3.9382,2.0918,-4.6967,2.8398,3.0770,-0.8345,2.5542,11.5804,8.9644,4.0778,6.7240,2.3258,6.9410,10.1078,21.0681,0.0
1741737600.932000,233,-0.0448,4.0007,3.0369,0.0941,6.2008,1.8496,0.5890,2.7900,11.2885,8.2010,1.8334,6.0145,-0.5731,9.4342,9.0120,17.2470,0.0
1741737600.936000,234,4.0237,1.0511,4.4202,4.5912,7.4042,3.5176,-0.4541,4.8812,8.6952,4.5406,2.5557,6.0181,-1.0869,9.8029,9.2298,12.4902,0.0
1741737600.940000,235,6.2823,-0.9619,6.4676,5.7900,9.0468,3.6767,-0.2444,6.4751,5.5317,2.2586,2.5609,4.5328,-1.0060,10.1261,7.5843,11.3239,0.0
1741737600.944000,236,6.5400,0.3492,3.6102,4.6671,6.9317,8.3807,-0.5790,7.5215,5.7859,1.1271,1.8135,1.8886,-1.8661,9.1187,8.1624,7.4086,0.0
1741737600.948000,237,7.5445,0.5655,4.6749,4.5051,5.0513,12.1860,1.9840,10.3570,5.2068,1.4413,3.7333,2.1191,0.9252,5.8666,7.7574,7.6195,0.0
1741737600.952000,238,3.4294,1.1258,2.2686,4.9968,6.4590,13.6933,2.7603,8.8832,4.6976,2.2558,2.3198,4.7942,2.0972,6.2218,3.5631,8.4663,0.0
1741737600.956000,239,2.7467,6.1390,3.7156,5.2990,4.0350,10.7869,4.6386,10.5495,2.2601,-0.2485,2.9492,5.8887,1.2101,4.6190,4.2852,6.4513,0.0
1741737600.960000,240,3.0773,7.3002,5.5175,6.5669,5.8160,9.7969,2.6112,8.4024,-0.5150,-1.2771,1.0477,7.0625,0.6328,0.4300,0.1731,2.3943,0.0
1741737600.964000,241,4.0738,8.1195,6.4105,5.6061,6.7331,7.2806,3.3894,3.1723,-3.8569,-2.1975,-0.1036,6.6182,0.0212,0.3079,-2.0310,0.1915,0.0
1741737600.968000,242,5.1136,9.2804,6.9091,5.0423,6.0789,1.8733,4.3728,-2.5270,-2.4024,-2.3617,0.4734,4.7762,0.4685,-3.3625,-5.0648,-4.1898,0.0
1741737600.972000,243,8.5085,8.9817,7.9340,7.1643,9.0124,-1.6412,3.9866,-4.0219,-2.5797,-4.1927,3.0568,4.4520,-0.9247,0.4430,-4.1423,-6.5997,0.0
1741737600.976000,244,5.1726,6.4506,9.1536,4.9181,10.9663,-3.5111,2.8499,-8.8573,-3.4635,-7.5414,2.3809,2.1178,0.9179,1.0019,-4.3017,-7.2967,0.0
1741737600.980000,245,3.9710,4.4945,7.5274,2.7390,10.8624,-6.6488,4.7103,-11.4690,-3.8470,-6.5655,3.1509,0.2472,-0.5206,2.0345,-6.9708,-9.2437,0.0
1741737600.984000,246,4.0583,4.6956,6.7372,2.5003,8.7825,-8.5645,1.1331,-12.4800,-6.3810,-8.9802,5.2492,0.1289,0.0609,2.0842,-9.5999,-14.1029,0.0
1741737600.988000,247,1.5996,2.8928,4.4588,1.2910,1.9687,-5.4276,2.4722,-11.9837,-9.2174,-6.5253,4.2753,-2.8552,-0.7354,3.5626,-4.9090,-16.0848,0.0
1741737600.992000,248,2.2537,0.3545,1.7790,0.6848,-2.4179,-4.6749,1.0541,-10.3431,-8.4518,-6.7475,4.3704,-0.7577,-2.2114,1.8064,-5.8699,-15.2605,0.0
1741737600.996000,249,2.1501,1.1454,0.3918,-3.4554,-4.7477,-1.3433,2.2186,-7.0812,-1.3295,-1.6947,4.4174,-2.8233,-1.0802,3.0490,-2.8447,-8.2936,0.0
1741737601.000000,250,1.1283,2.8845,2.1459,-1.7220,-7.5321,-1.1114,3.5074,-4.6551,6.0018,7.5678,3.0997,-3.7845,-3.8735,3.3030,2.4370,2.7750,0.0
1741737601.004000,251,3.3236,1.4040,2.0035,-4.2233,-9.7165,0.2803,3.7259,-2.2572,10.2803,14.0068,4.1021,-1.0904,-5.1672,2.8179,5.1848,11.2326,0.0
1741737601.008000,252,1.1389,0.7713,2.7686,-2.5184,-8.1230,3.3626,2.8307,0.9938,17.6297,14.4423,4.4553,-4.2976,-7.9500,1.8417,7.6048,16.6184,0.0
1741737601.012000,253,5.1658,0.3301,2.4446,1.0035,-6.9216,5.4078,0.9343,2.5228,19.9384,14.9813,1.8733,-6.3535,-5.2554,1.4742,7.9967,16.0754,0.0
1741737601.016000,254,2.7070,-3.5924,0.7398,0.7195,-3.2070,4.0375,1.3989,2.1031,15.2889,9.5478,2.6562,-4.4239,0.4304,1.5026,7.5716,13.2316,0.0
1741737601.020000,255,3.9445,-3.7389,1.8569,3.0470,1.5386,5.1467,0.0245,2.4936,9.5439,4.9176,0.3172,-3.5581,-0.3043,4.0911,7.9752,9.2530,0.0
1741737601.024000,256,1.8396,-1.8434,2.6773,2.2863,0.6100,5.3041,2.3343,4.0287,5.5943,-0.0633,-2.1049,-1.4632,4.5304,2.6788,6.5999,5.9154,0.0
1741737601.028000,257,2.6271,-1.3557,2.2398,2.6530,5.0277,4.2536,1.7384,4.0670,2.4858,1.5536,-3.2424,-0.1455,5.8607,3.9646,3.6317,3.1798,0.0
1741737601.032000,258,3.6661,0.4579,3.6251,0.8794,7.5297,6.4404,6.8521,4.4914,-3.1285,0.0346,-2.4739,1.1292,4.7518,2.4395,2.1426,-0.1172,0.0
1741737601.036000,259,3.9024,2.0585,3.2697,2.2082,8.2202,8.2646,7.8971,3.1756,-1.2375,1.1369,-1.7204,3.6733,9.2725,0.6418,-3.6795,1.5001,0.0
1741737601.040000,260,6.9899,2.8469,6.2647,7.0244,6.5720,5.7588,12.6987,3.4873,-5.7173,3.8872,-2.0864,2.7420,9.2925,-2.4909,-3.1309,-2.0702,0.0
1741737601.044000,261,4.8142,5.2435,6.0631,2.9629,6.2288,5.2161,12.7098,4.9567,-4.3210,0.8342,5.7426,6.7368,6.2239,-0.5647,-5.0709,-7.0629,0.0
1741737601.048000,262,1.2316,6.8838,7.5769,1.2565,4.2931,4.2334,14.8051,5.1415,-6.9153,-0.6570,9.0607,6.6830,2.8704,0.7497,-5.0220,-7.5758,0.0
1741737601.052000,263,4.3321,7.3804,6.6345,-0.1591,3.2744,7.4856,14.9471,5.1860,-3.9078,2.1460,13.3562,4.5505,2.2354,0.7871,-5.8650,-7.1290,0.0
1741737601.056000,264,-0.7398,9.0213,7.1817,0.0662,1.9747,7.2482,12.2755,3.6855,-4.8983,2.6469,15.9552,8.0649,1.3810,-1.8381,-2.7407,-6.7090,0.0
1741737601.060000,265,-1.2169,9.8150,5.0497,-0.9041,1.7639,9.8991,6.4771,6.8039,-3.4842,0.1015,12.2495,6.9527,1.8852,-3.9259,-2.0511,-5.3731,0.0
1741737601.064000,266,-4.1883,10.0489,5.4575,-2.1474,1.0393,9.7210,5.3088,5.9741,-8.7761,0.9736,14.0262,6.3540,3.0103,-0.1846,-2.5829,-8.9309,0.0
1741737601.068000,267,-2.7872,10.3799,5.4495,-3.6961,-1.3551,9.6227,4.4347,4.0796,-8.6044,-5.0079,11.4949,6.6934,4.4517,-0.9898,-1.9658,-10.2925,0.0
1741737601.072000,268,-2.4118,10.6928,6.6477,-1.1319,-0.8430,8.7898,4.0951,3.5335,-10.2274,-7.6886,7.8346,4.6110,5.6808,1.1493,-5.4771,-13.1108,0.0
1741737601.076000,269,-1.7825,10.1769,9.6713,2.2501,1.2063,7.5595,0.6881,1.2965,-9.5893,-7.5110,5.0462,2.4683,6.0879,2.6142,-5.8617,-8.3906,0.0
1741737601.080000,270,2.5740,8.9352,12.5815,5.7269,1.1080,2.3906,1.0801,0.5435,-6.0411,-3.5149,4.6064,3.1681,7.0038,2.5807,-2.6219,-2.3871,0.0
1741737601.084000,271,4.1130,6.0331,15.7422,8.9248,4.6690,1.5674,4.1883,0.1468,3.0668,4.6150,4.4157,0.6043,5.5901,1.1556,-1.2945,8.9690,0.0
1741737601.088000,272,6.0816,5.2370,14.0398,9.0801,3.4868,2.3652,3.9440,1.3286,12.6185,12.2493,5.2378,-3.0476,3.6060,3.8703,3.8433,16.6234,0.0
1741737601.092000,273,5.9459,2.2792,13.7075,8.7255,3.6484,1.0252,6.5575,0.0229,18.8007,13.7302,7.3536,-0.5681,0.7993,4.3249,5.1292,23.1575,0.0
1741737601.096000,274,1.5486,1.4239,10.2474,5.2960,2.2478,2.4621,5.7051,2.2907,19.8145,14.5964,10.5858,-0.1108,1.1849,2.6733,9.1102,25.7966,0.0
1741737601.100000,275,0.7837,3.8055,5.3058,2.4784,2.9589,3.4844,7.9286,4.0809,18.8359,13.4543,10.5614,5.3968,-0.8282,1.1126,10.6792,25.0556,0.0
1741737601.104000,276,-3.9854,8.5138,0.1830,-1.6882,0.3540,5.0205,4.9309,4.8890,15.6881,12.2803,12.0672,7.9810,-2.5152,0.9062,14.3092,20.3006,0.0
1741737601.108000,277,-5.9380,8.3740,-2.1774,-2.1117,0.9801,7.1976,3.2800,6.8141,12.5642,7.8489,10.9390,11.9923,-4.1981,1.9375,15.8441,16.7936,0.0
1741737601.112000,278,-7.2386,10.4599,-3.6951,-2.7611,-0.8623,7.0158,0.5705,7.1395,9.2246,6.9718,7.6334,12.5305,-4.5557,1.4816,13.8537,10.8746,0.0
1741737601.116000,279,-5.2920,10.3211,-5.6116,-1.3217,0.8553,5.1111,2.4118,6.3877,4.3038,4.6691,5.2771,11.5236,-4.7613,0.2579,13.2830,7.8632,0.0
1741737601.120000,280,-0.4080,8.9136,-5.6433,-1.3015,3.3349,1.9960,0.4304,2.1457,2.0377,2.1778,3.3636,9.4342,-2.2928,4.5903,13.3201,2.0398,0.0
1741737601.124000,281,1.9403,5.4631,-3.3170,3.9907,5.7734,2.9398,2.2339,5.3582,-1.5221,-0.4905,2.1947,8.0456,-1.7323,4.6097,12.9325,-3.1921,0.0
1741737601.128000,282,4.5865,0.1740,1.7266,5.4013,8.7113,1.1059,0.1061,3.9031,-6.2397,-1.8902,0.5035,3.2269,0.0872,8.6130,8.8439,-8.6189,0.0
1741737601.132000,283,10.1926,-1.0973,1.5575,8.1143,8.3036,-0.1722,-0.5616,1.3650,-7.8230,-5.7547,-0.7024,-0.5145,1.0633,12.0786,3.4977,-13.0924,0.0
1741737601.136000,284,10.8748,-4.6619,1.3606,10.8352,9.2712,0.2971,-1.8341,3.2404,-7.8980,-5.7229,-5.6430,-1.8228,2.8015,9.9900,0.5738,-16.0112,0.0
1741737601.140000,285,13.2115,-6.7675,3.7539,11.4938,9.3011,-0.5917,2.6913,4.6867,-10.4563,-4.8911,-5.1124,-1.2920,7.4877,8.2156,-0.1710,-14.2484,0.0
1741737601.144000,286,11.1037,-5.8304,3.0176,10.5282,9.5244,0.0475,-0.9368,3.2751,-10.1520,-3.7922,-4.6267,2.7031,8.5208,7.4816,-3.7495,-12.6651,0.0
1741737601.148000,287,9.8681,-4.1753,3.2931,8.9070,7.8901,-1.5250,0.3131,4.4178,-9.8161,-4.9456,-2.0768,4.7662,9.0756,4.0333,-4.9819,-13.7991,0.0
1741737601.152000,288,7.6800,-0.8860,0.1273,8.5184,6.0315,-1.4241,5.0945,2.6312,-11.6063,-8.1960,0.7774,6.9208,5.4603,1.2466,-7.8183,-14.6365,0.0
1741737601.156000,289,6.1010,-0.7243,-0.8425,6.1818,6.3827,-1.8656,3.5848,1.7679,-7.9961,-7.0684,1.7936,6.4708,4.3081,0.1999,-9.5189,-13.5869,0.0
1741737601.160000,290,5.1503,-0.0505,-2.1618,4.7669,6.0506,-2.6735,5.1555,0.6318,-1.2065,-4.5097,3.7540,9.0205,4.0527,-2.2162,-5.8501,-7.5192,0.0
1741737601.164000,291,4.2509,2.7227,-4.2754,3.0749,6.8097,-4.1831,6.6035,2.1268,4.1350,2.3149,4.6359,7.9485,2.8421,-1.7646,-0.0966,0.6768,0.0
1741737601.168000,292,-0.4278,3.0837,-4.9622,2.0566,6.8764,-4.2682,4.3649,5.7441,13.8126,9.3055,5.0272,8.8157,3.1507,0.5698,2.6108,12.2807,0.0
1741737601.172000,293,-0.5847,-0.8011,-7.6010,-2.6378,7.3057,-3.9635,5.2968,6.0618,20.7649,16.5650,7.7124,6.6650,4.1226,3.7259,8.6171,21.4307,0.0
1741737601.176000,294,-0.8111,-0.4628,-9.1094,1.1832,4.9999,-0.4076,3.3807,9.5863,25.5125,20.3826,3.2497,5.3837,4.6414,7.0940,10.0389,27.1629,0.0
1741737601.180000,295,0.4282,-1.5522,-4.9176,1.4366,6.3366,-1.0427,1.4084,8.2971,23.7824,18.8061,0.8065,4.1651,6.9772,9.6255,10.6132,24.8397,0.0
1741737601.184000,296,1.6894,-1.2765,-4.0159,3.5649,8.0941,-3.7653,-0.2701,6.0040,18.6288,16.8399,-3.5095,3.1368,7.2772,8.7685,9.6356,21.5260,0.0
1741737601.188000,297,2.2951,-5.6504,-1.4399,6.1896,6.9671,-5.2798,-1.3727,5.6580,15.6756,14.4176,-4.4008,1.5757,4.3941,11.4201,8.2352,17.8716,0.0
1741737601.192000,298,6.2009,-6.3035,-2.4644,5.6587,5.3437,-5.3504,1.3411,3.6838,10.8969,11.4110,-4.6018,1.2092,3.8322,11.2199,6.5892,12.6377,0.0
1741737601.196000,299,9.9968,-8.0308,-1.1911,8.5172,5.3827,-8.1895,0.1914,2.2124,9.4089,7.5675,-2.2215,-1.7008,2.5354,11.4777,5.0962,7.9112,0.0
1741737601.200000,300,9.9646,-8.3431,0.0560,8.1427,10.0282,-10.4979,-0.5162,1.1031,7.2236,6.1090,-3.4477,-0.9590,1.4883,10.0417,6.1185,5.8462,0.0
1741737601.204000,301,8.8963,-10.0150,-0.1251,7.8350,8.7450,-10.0791,-3.6114,1.8791,6.1909,3.3222,-2.4349,4.3384,3.8070,7.8740,6.3615,4.8925,0.0
1741737601.208000,302,8.8882,-9.3697,-0.5157,4.7114,6.9121,-11.1210,-4.1082,1.5592,4.7688,1.4717,-1.6427,3.6249,1.6028,6.3646,8.2386,1.1964,0.0
1741737601.212000,303,5.4415,-8.8083,-3.7572,3.6585,6.0491,-6.5342,-3.4842,2.6068,-0.8004,-1.7411,-2.1889,7.6728,2.3243,6.1385,7.7599,0.5357,0.0
1741737601.216000,304,5.3484,-6.6072,-8.3741,0.8788,4.0204,-4.9503,-4.2030,1.7406,-1.9519,-3.9323,-4.1234,10.1289,1.1189,6.9191,5.8316,-2.8302,0.0
1741737601.220000,305,4.6910,-3.6521,-8.3368,-0.3213,1.2240,-3.3574,-5.9925,4.6728,-5.2037,-6.1721,-4.6502,10.1500,2.5118,4.9197,5.7007,-4.8881,0.0
1741737601.224000,306,3.6744,-3.7201,-10.0927,-1.4997,0.6977,-2.0302,-8.0605,5.7267,-10.0331,-7.2974,-8.0799,12.1060,5.6441,5.1751,4.3891,-7.9036,0.0
1741737601.228000,307,3.7015,-3.1903,-7.2201,2.6999,0.3577,1.9605,-7.4516,6.3855,-11.7036,-8.2675,-9.0252,11.3776,5.5739,3.6113,1.0277,-10.5411,0.0
1741737601.232000,308,7.3144,-4.0272,-5.8735,3.3353,3.9579,0.9307,-7.9704,5.5321,-13.1052,-12.6294,-7.6526,10.6964,4.0802,5.5133,-1.7739,-12.9177,0.0
1741737601.236000,309,10.2671,-5.6309,-4.1944,3.9016,4.5144,0.1999,-4.5966,5.5685,-13.2102,-16.3638,-7.6492,8.0694,4.4274,9.0302,-3.4005,-18.2499,0.0
1741737601.240000,310,12.3548,-8.0455,-5.6771,7.9291,4.3779,-0.7275,-6.4307,1.3674,-14.5351,-17.9019,-6.9294,4.0328,4.6918,9.0002,-5.5580,-19.1682,0.0
1741737601.244000,311,11.1224,-7.6049,-3.6172,7.2110,7.5184,-3.1463,-5.0835,2.3964,-7.2647,-13.5415,-6.8225,3.0014,4.5560,8.3591,-1.0148,-13.8081,0.0
1741737601.248000,312,9.7085,-7.8609,-4.0261,1.4292,8.3548,-5.0957,-1.5823,3.6227,-1.2566,-5.6118,-5.1287,3.4291,5.7096,5.9107,1.2951,-2.7596,0.0
1741737601.252000,313,7.5728,-9.1285,-0.9707,1.6402,9.5594,-6.5220,0.4923,0.8189,9.5280,1.7983,-4.7643,6.3829,8.6166,7.8213,2.9179,9.5670,0.0
1741737601.256000,314,5.5255,-5.7007,-1.8113,2.6225,8.1800,-4.5321,1.4904,2.0337,16.5527,11.9696,-3.2215,6.3601,5.9170,5.1840,6.8743,19.0072,0.0
1741737601.260000,315,5.1955,-7.3294,-6.6861,1.1546,5.4955,-6.8711,1.8304,2.3179,20.3361,15.3150,-3.7167,6.1014,5.4741,2.9263,5.7755,23.7065,0.0
1741737601.264000,316,4.5223,-4.5208,-4.8435,0.4520,7.1974,-6.5508,3.1188,0.0344,20.2949,17.8049,-6.2988,7.1350,6.8113,-0.4010,4.0757,25.3836,0.0
1741737601.268000,317,2.5136,-1.0489,-3.3234,-1.4120,3.9440,-8.8409,2.3417,-0.3001,16.6283,14.5388,-2.3342,6.5283,3.6494,-0.2947,3.6909,19.9053,0.0
1741737601.272000,318,3.0661,-1.1789,-1.7340,-2.1885,0.9443,-7.8923,4.6375,-0.7265,12.4996,12.4062,-0.7605,7.8119,2.9516,0.7456,4.2012,18.1821,0.0
1741737601.276000,319,0.9509,-3.3257,-2.5932,-2.9005,-0.8774,-5.0975,2.7172,1.9257,11.6590,12.1113,0.5243,5.3338,0.1044,2.8469,3.0142,13.2335,0.0
1741737601.280000,320,4.7670,-3.2133,-1.1197,-0.6729,-4.0779,-2.1696,-0.5961,1.0599,11.8106,9.2913,0.3017,3.3513,-1.2235,3.1079,2.1038,10.2758,0.0
1741737601.284000,321,2.1814,-5.3641,-1.5244,-1.2556,-2.0410,-1.7866,-3.8900,0.8624,9.3014,6.0348,-1.7977,0.1764,-2.0926,2.4909,2.5215,7.5581,0.0
1741737601.288000,322,1.5253,-6.2460,1.7765,-4.6541,-0.0165,1.4939,-3.8113,1.5653,4.0784,4.4331,-3.0877,-3.1142,-1.6753,3.5967,3.0429,5.2880,0.0
1741737601.292000,323,1.2329,-4.4896,-1.0648,-5.1972,-3.5168,0.7413,-8.7154,2.5533,-1.9995,-2.0004,-6.3613,0.0014,1.6683,5.1330,-0.6946,1.4951,0.0
1741737601.296000,324,-1.4578,-6.2064,-0.1870,-5.5834,-1.6949,3.6551,-7.0373,2.7089,-6.1251,-6.0199,-4.8132,1.6593,3.7406,5.8004,0.5872,-0.1527,0.0
1741737601.300000,325,2.8268,-3.2489,-1.3119,-4.1123,-2.0644,0.1533,-6.3250,2.1319,-8.8285,-7.8819,-7.7155,2.8650,2.5470,3.6547,-2.1696,-2.4748,0.0
1741737601.304000,326,3.7462,-2.7339,-0.5489,-0.9830,2.0985,-1.2330,-4.7379,-1.1493,-10.3225,-9.9613,-7.9199,3.0454,4.0544,1.3304,-2.6961,-5.4145,0.0
1741737601.308000,327,4.9077,-3.4154,2.6296,-0.6269,3.4005,-3.3691,-4.0189,-6.3879,-12.1148,-13.2069,-7.6912,3.9595,0.2402,0.9486,-4.7711,-9.7886,0.0
1741737601.312000,328,4.3648,-2.4313,2.3845,-0.8754,5.4386,-4.4067,-5.2689,-5.0977,-13.5770,-16.3580,-5.8555,1.0785,4.1296,-1.5602,-7.1793,-9.7132,0.0
1741737601.316000,329,4.6418,-2.7082,0.8903,-1.9349,3.5988,-2.1513,-2.3499,-6.2930,-16.2225,-16.8214,-2.7420,1.2114,0.2969,-1.2917,-7.9909,-15.5345,0.0
1741737601.320000,330,1.3687,-3.6180,0.7118,-4.3090,2.5309,-4.6768,-0.7773,-7.1045,-17.5731,-20.7280,0.7444,3.3879,0.6450,-1.2623,-6.6343,-18.7613,0.0
1741737601.324000,331,1.9503,-2.3482,-1.0532,-7.7691,5.0241,-4.1939,0.7196,-5.3695,-15.8686,-18.8872,4.2226,3.8523,-2.2937,-1.4115,-5.1560,-20.5663,0.0
1741737601.328000,332,-2.1229,-0.1523,-2.1889,-7.0750,-0.6644,0.7504,-2.8084,-3.2877,-12.9871,-12.3386,2.9255,4.1962,-5.3281,-0.6564,-2.5069,-12.0538,0.0
1741737601.332000,333,-2.1708,0.9219,-1.1336,-7.9183,-6.3835,4.5327,0.5026,-0.9868,-3.9402,-3.7597,2.1516,3.1696,-6.2964,-4.3643,0.8559,-2.5316,0.0
1741737601.336000,334,-4.3196,4.3507,-2.0884,-9.3556,-6.9039,3.7827,0.0460,-0.1495,2.4596,5.5136,0.7621,3.7541,-4.9170,-2.7321,5.1589,7.7753,0.0
1741737601.340000,335,-4.8256,1.8215,-3.5473,-8.7040,-9.2450,3.5835,0.7455,-0.2193,9.0551,11.8287,0.7871,4.9720,-5.8050,-1.2478,7.0198,15.9843,0.0
1741737601.344000,336,-0.9790,3.2872,-1.1794,-7.3717,-8.3128,3.7987,2.5332,3.7984,12.0279,12.9819,0.3336,2.0999,-5.9053,-2.7684,6.6809,16.9426,0.0
1741737601.348000,337,-2.1254,2.1142,0.9397,-5.6329,-7.3811,2.3402,0.7999,-0.4209,11.6393,11.7641,1.4533,-1.0103,-4.3661,-2.1524,2.5436,14.4549,0.0
1741737601.352000,338,3.3604,1.6210,5.3808,-3.9771,-6.3434,0.5505,-1.1428,-1.6153,7.4415,8.5393,-2.8402,-5.1349,-5.5425,-1.9841,1.2849,9.1079,0.0
1741737601.356000,339,1.5213,-0.1764,8.2184,0.3110,-3.9470,-0.1907,-3.0980,-5.0906,5.4787,6.2416,-3.8585,-4.1385,-3.1426,-0.2622,-1.2349,8.4963,0.0
1741737601.360000,340,3.4980,-3.5838,6.9696,-0.9954,-3.2137,-2.6640,-1.1399,-6.4977,1.1449,3.7908,-2.9833,-5.1534,-1.4644,-1.1846,-1.6009,8.1193,0.0
1741737601.364000,341,2.9726,-6.9167,5.7065,-0.9729,-4.7602,-1.7538,-2.3989,-7.1563,1.7615,0.8319,-3.6488,-4.3945,0.7230,1.6751,-5.0539,8.1057,0.0
1741737601.368000,342,1.4867,-4.6587,5.2317,-1.9672,-3.7966,-0.9389,-0.1357,-5.0720,3.5514,0.8293,-2.7886,-8.8355,-0.9783,-1.3976,-7.0860,5.4973,0.0
1741737601.372000,343,-1.9971,-1.0315,1.5427,-4.3649,-4.6524,1.4581,-1.4217,-4.5386,0.2879,0.7819,-2.6679,-4.1157,-1.3279,-3.3485,-7.4230,3.8544,0.0
1741737601.376000,344,-4.4346,0.3081,1.7893,-6.3835,-5.5112,0.4037,-0.5719,-4.8723,-3.7247,-3.1621,1.0909,-2.0717,-2.5819,-7.5266,-5.5998,1.8041,0.0
1741737601.380000,345,-6.4143,3.8062,0.6204,-6.8118,-6.8986,1.8099,1.4036,-4.8754,-4.1816,-3.8195,1.7459,4.0603,-4.3263,-6.2390,-6.2134,-1.4958,0.0
1741737601.384000,346,-8.8954,3.4770,-3.0754,-7.5865,-8.5456,2.5691,2.1548,-4.3232,-5.2725,-6.5712,3.8741,2.6575,-8.6825,-7.1103,-5.6601,-3.8740,0.0
1741737601.388000,347,-10.0279,2.6505,-4.6562,-7.4816,-4.8514,1.5467,3.5984,-3.5451,-4.1015,-10.4721,6.8747,-0.4875,-10.1159,-7.0333,-7.2014,-6.4868,0.0
1741737601.392000,348,-10.4889,3.0950,-6.2194,-11.7453,-6.6399,1.9516,2.8391,-2.8378,-6.2775,-8.7693,8.4658,-1.7472,-11.3809,-7.1885,-5.5594,-11.5001,0.0
1741737601.396000,349,-12.4250,3.2596,-6.6394,-8.3832,-2.5586,0.2018,0.5185,-5.0004,-8.5227,-12.5336,4.5926,-3.0380,-8.4599,-4.4746,-1.6826,-14.9397,0.0
1741737601.400000,350,-10.8507,3.0508,-5.6045,-7.2586,0.4926,1.4873,-1.8641,-0.7609,-13.2105,-16.4116,-0.6131,-3.8050,-9.2955,-3.5000,-3.2884,-20.0421,0.0
1741737601.404000,351,-10.3848,1.3204,-3.7294,-5.8724,-0.0672,-0.0276,-3.6667,-4.9503,-20.0909,-18.0694,0.1550,-3.6124,-7.9715,-3.3602,-4.9045,-22.5459,0.0
1741737601.408000,352,-7.1153,-2.4245,-2.1993,-5.3331,-2.0310,1.0943,-3.0552,-5.3584,-20.4534,-14.7911,-2.2049,-3.1829,-3.3100,-1.2874,-6.6764,-22.5782,0.0
1741737601.412000,353,-3.8015,-2.8086,1.6600,-1.5985,-1.3485,-0.2867,-1.8727,-4.7314,-15.4127,-9.3839,-6.4681,-6.9602,-2.1302,-3.4034,-6.3177,-20.2849,0.0
1741737601.416000,354,-2.8963,-3.0021,4.4212,0.8337,-1.5369,-3.4416,-0.8415,-3.6229,-8.2054,2.5071,-8.2294,-9.9863,-0.7817,-5.3273,-7.4478,-8.3518,0.0
1741737601.420000,355,-1.3549,-1.8497,7.6429,1.3237,-0.8308,-4.5092,4.2923,-1.4341,1.5527,9.7124,-9.1217,-7.5153,0.6183,-4.5356,-3.6080,2.3486,0.0
1741737601.424000,356,0.2910,-2.6654,8.4979,1.3382,-1.3302,-6.1031,7.1247,-1.2845,4.5287,18.5109,-3.6674,-6.4711,-4.0579,-3.7095,-3.0136,7.5979,0.0
1741737601.428000,357,-0.2321,-2.0169,6.7427,1.8194,-3.4207,-3.8231,8.1516,-2.5979,8.9733,19.1579,0.1983,-4.0169,-3.4195,-2.6463,-2.1277,14.3028,0.0
1741737601.432000,358,0.6098,-2.9192,4.8679,0.6731,-3.4460,-2.0691,5.9883,-4.3479,8.9657,18.5692,-0.2634,-3.2293,-5.7733,-2.4033,-1.1666,12.5237,0.0
1741737601.436000,359,-4.0274,-0.1495,1.5647,-2.0069,-3.1857,-1.8813,2.9818,-3.3776,8.8695,14.3083,2.9434,-1.7626,-3.4512,-1.7545,-1.8805,11.9050,0.0
1741737601.440000,360,-6.3710,1.0420,-3.9320,-6.6113,-3.8508,-0.4463,-0.2086,-2.9940,7.8613,10.0320,2.2147,-0.7288,-3.0471,-3.4158,0.4525,10.5309,0.0
1741737601.444000,361,-12.1799,3.8273,-2.6674,-10.3001,-3.2495,-2.7643,-2.1558,-3.8539,4.2070,6.2371,2.4809,3.7919,-3.9666,-0.7446,2.2236,10.3150,0.0
1741737601.448000,362,-10.9922,4.8715,-8.7586,-11.9160,-3.9690,-0.7313,-3.4343,-2.8106,5.0712,3.3464,3.6893,0.9883,-4.5973,1.2760,3.3368,8.3218,0.0
1741737601.452000,363,-10.5212,3.6575,-9.7470,-8.1014,-2.7422,-3.0952,-6.6687,-3.1219,3.0405,-0.8234,0.5234,1.1519,-5.1969,4.0893,0.0660,5.9885,0.0
1741737601.456000,364,-6.3082,1.0406,-6.5095,-5.5116,-1.0288,-3.1104,-8.5458,-3.7038,-0.3874,-1.3581,-2.8444,-1.9132,-4.0458,1.6541,-0.1577,1.4190,0.0
1741737601.460000,365,-3.9724,-0.1424,-5.4175,0.0489,0.2446,-4.6004,-5.6661,-4.1871,-2.6553,-6.4015,-4.8679,-4.7214,-3.1419,1.5108,-0.4219,-4.5596,0.0
1741737601.464000,366,0.4410,-1.8552,-2.5293,2.3514,2.0180,-4.1930,-6.4124,-6.7517,-4.4953,-9.3269,-2.9863,-7.0910,-2.9664,4.0808,-4.2966,-7.3072,0.0
1741737601.468000,367,2.9982,-7.5938,-0.4011,5.0350,0.2011,-3.4425,-4.3721,-2.0358,-4.5890,-10.6797,0.0518,-7.9134,-4.8033,8.5729,-4.6367,-11.2292,0.0
1741737601.472000,368,3.2263,-10.6294,-2.0228,6.8712,4.3174,1.4282,-3.2378,-1.2678,-6.6807,-12.3187,3.4319,-9.7328,-6.1890,5.8317,-3.0103,-12.9423,0.0
1741737601.476000,369,4.5918,-8.1568,-3.6516,9.5476,5.3412,0.7444,-3.3785,0.7566,-6.7109,-11.8980,0.5901,-7.5024,-6.1312,3.8787,-5.0872,-12.8685,0.0
1741737601.480000,370,6.5325,-10.1482,-4.7015,10.0223,4.3476,3.4586,-3.9342,0.5610,-10.1783,-12.5336,-2.5228,-5.9112,-5.6033,-0.5730,-4.2238,-14.9320,0.0
1741737601.484000,371,2.3820,-4.8270,-4.7434,4.8888,2.1220,2.3707,-2.1210,1.3471,-12.4072,-13.4641,-3.1461,-0.8998,-1.9515,-4.5920,-5.3416,-19.3374,0.0
1741737601.488000,372,2.7521,-2.3082,-5.1339,4.5676,0.7612,3.7057,0.2956,4.4183,-14.8748,-12.1180,-2.5541,0.6918,-2.3387,-6.5891,-6.1315,-19.1901,0.0
1741737601.492000,373,1.0426,-1.0144,-6.3962,3.1284,0.5529,2.6836,2.0452,2.5853,-14.6855,-11.1818,-2.0589,0.2461,-2.6303,-10.8228,-4.9018,-20.2532,0.0
1741737601.496000,374,1.8827,2.4737,-6.2406,4.0600,-0.5808,0.1174,3.1361,1.7141,-9.0865,-4.6653,-4.4062,3.4900,-3.0910,-9.7662,-8.2503,-13.0299,0.0
1741737601.500000,375,3.3137,3.2029,-4.4450,2.5907,1.8583,-3.0029,4.2297,-1.1921,-1.0374,5.4105,-5.3264,0.1830,-0.9453,-11.0301,-5.0859,-4.4105,0.0
1741737601.504000,376,3.1633,3.6397,-1.7789,5.3427,0.8187,-7.9330,6.5950,-0.8842,7.1955,17.2801,-6.2854,0.8471,0.1500,-12.5970,-1.5060,8.4240,0.0
1741737601.508000,377,2.4813,0.6495,0.6021,4.3361,-0.7156,-6.8149,6.6501,-1.9043,15.7025,21.8023,-4.5605,-1.7189,1.8376,-8.0872,0.1235,16.0427,0.0
1741737601.512000,378,3.9048,1.7007,0.1541,-1.0378,-1.5515,-8.4521,8.2757,-3.0043,16.7988,24.2006,-3.0847,-2.4716,2.0222,-4.1310,-0.1409,15.9206,0.0
1741737601.516000,379,2.9189,-1.7935,0.7543,0.3491,-3.6812,-8.8368,6.1851,-2.8445,18.3512,22.6454,-4.0049,-4.8643,3.2857,-3.3399,-3.3065,13.2560,0.0
1741737601.520000,380,0.9669,-0.1994,-0.7622,-0.3367,-3.0973,-7.7245,5.5024,-5.0443,15.8152,20.1110,-4.8893,-6.0236,3.9112,-2.5541,-0.3399,13.2308,0.0
1741737601.524000,381,-1.4236,-0.2877,-1.7825,-3.4703,-4.4013,-7.4685,1.1797,-3.3054,13.3146,17.2690,-4.1880,-2.0551,3.6171,-0.5258,-2.1574,10.4357,0.0
1741737601.528000,382,-3.2350,-0.5166,-0.2940,-4.6844,-6.1843,-6.5523,2.2723,-3.4209,10.9923,16.1666,-2.7637,-2.9929,3.7580,-2.0905,-0.9256,12.0285,0.0
1741737601.532000,383,-5.0010,-2.8693,-2.4617,-4.3878,-11.2069,-5.9515,0.6955,-3.8263,11.3071,11.6066,1.0313,-1.6035,-0.0108,0.0445,0.0704,8.7932,0.0
1741737601.536000,384,-3.5731,-3.5852,-5.0489,-5.0025,-8.0524,-3.8688,-0.9390,-6.4814,10.7250,6.9107,1.2183,-3.3106,0.4333,1.4200,2.3824,6.1095,0.0
1741737601.540000,385,-2.6062,-5.4383,-4.8550,-6.0564,-7.5780,-6.9791,-4.6209,-4.1580,6.3700,0.9180,2.8684,-4.1390,1.3342,0.4688,1.0596,5.8033,0.0
1741737601.544000,386,-3.1805,-4.4629,-4.4743,-3.9590,-4.5643,-8.0440,-6.4007,-6.4144,3.1077,-6.7090,-0.5505,-1.2973,-3.8428,1.8272,4.1800,-0.8874,0.0
1741737601.548000,387,-5.1442,-4.6423,-2.9776,-6.4879,-0.7839,-4.0832,-6.4311,-2.4278,-1.3298,-10.1520,0.0098,-1.3697,-1.6678,2.5517,5.6596,-3.8838,0.0
1741737601.552000,388,-4.3060,-5.9278,-6.0577,-4.9649,0.4847,-2.9151,-7.2757,-0.4311,-6.8797,-12.0583,-0.1164,-0.3167,-0.5152,4.0157,5.9157,-4.2496,0.0
1741737601.556000,389,-2.5242,-8.6475,-3.4160,-4.0134,0.1294,3.2432,-6.8606,-0.0050,-8.1401,-14.8763,-2.1606,-2.0931,-0.6466,4.5154,4.8633,-9.5732,0.0
1741737601.560000,390,0.1817,-9.2798,-4.9290,-2.4153,0.3121,4.8391,-7.2754,4.2507,-14.7135,-17.4486,-8.7730,0.5645,1.2005,1.9049,2.1382,-11.8859,0.0
1741737601.564000,391,-1.0155,-7.1959,-0.0755,0.8528,2.3193,6.1363,-5.2530,7.1457,-17.9765,-14.9875,-8.3521,0.9568,3.2673,0.1462,2.1628,-15.5391,0.0
1741737601.568000,392,1.2463,-3.9496,2.4949,0.1367,2.3477,8.3299,-1.3812,10.3537,-22.6199,-17.8499,-5.7397,3.9347,2.8813,-1.0714,-3.5845,-22.1758,0.0
1741737601.572000,393,2.3248,-2.8058,3.2488,0.8320,1.5156,10.5760,0.6397,8.7326,-21.6915,-16.0799,-6.2472,3.7860,3.1893,-1.7921,-4.9847,-21.9906,0.0
1741737601.576000,394,4.9831,-3.7574,2.2099,3.1818,1.4711,10.5313,4.3243,9.9044,-17.5828,-14.7947,-2.1998,5.5136,2.5478,-1.0261,-5.9607,-17.3525,0.0
1741737601.580000,395,5.8683,0.5459,2.9351,3.2901,4.5084,8.7329,5.6227,7.5443,-9.7749,-7.1747,-1.7800,5.6817,0.5533,-3.3366,-7.2196,-10.4329,0.0
1741737601.584000,396,4.8302,2.9230,3.6431,4.3926,4.1416,6.9485,5.7227,9.6524,-2.4021,3.7215,2.9273,6.4720,4.2583,-5.8521,-3.3817,0.6605,0.0
1741737601.588000,397,1.9829,5.4180,5.9633,-1.8249,5.2011,3.5036,7.1967,9.1743,3.8566,14.7187,2.1474,7.6618,3.6036,-5.7675,3.2558,13.6663,0.0
1741737601.592000,398,-1.6733,8.9274,5.0339,-2.9726,5.0979,4.0651,7.1593,7.4309,10.4166,19.9742,4.4660,8.3661,4.7057,-3.6351,3.0316,23.4613,0.0
1741737601.596000,399,-4.6704,9.1123,3.7030,-6.3109,5.8435,0.3289,7.0696,2.8018,14.8499,20.7845,5.6747,7.3497,4.2543,-3.9180,1.1792,24.3009,0.0
1741737601.600000,400,-3.4756,8.8250,1.9068,-7.6706,2.3586,-1.0716,5.5175,-0.7842,14.9673,17.6356,5.2162,7.8547,3.7771,-2.7697,0.2041,23.6698,0.0
1741737601.604000,401,-2.4448,12.3727,4.3677,-6.6874,2.5731,-3.8673,2.0626,-5.0974,15.4073,16.8209,1.1663,4.9945,2.4883,-3.4576,-3.1123,20.3810,0.0
1741737601.608000,402,-2.4870,8.2227,7.9396,-4.3992,0.0517,-7.8614,0.6161,-7.2713,12.6769,15.9843,2.4707,2.2017,-0.1440,-1.2155,-3.6680,18.5567,0.0
1741737601.612000,403,-1.6900,8.7355,7.3482,-3.6570,-3.2583,-6.8334,-1.0248,-9.9991,11.5342,12.5213,1.7997,-2.0766,-2.9052,3.6044,-1.9205,16.6215,0.0
1741737601.616000,404,-1.5552,4.8143,7.7241,-4.1836,-7.3204,-6.8295,-2.2240,-9.8745,13.4448,9.5367,4.8674,-5.0418,-6.0881,3.5213,-1.9326,15.0794,0.0
1741737601.620000,405,-2.9189,1.1442,5.0376,-2.2232,-8.6046,-3.8183,-3.7297,-9.9578,12.6698,5.6444,6.3405,-7.7926,-8.0793,4.8484,0.9752,11.0933,0.0
1741737601.624000,406,-1.6872,0.4901,4.8431,-0.8060,-7.4128,-1.1624,-7.1972,-9.8542,11.4663,-1.5617,7.1968,-8.1661,-10.0359,4.9993,-0.1162,7.5587,0.0
1741737601.628000,407,-1.1418,0.3181,1.4973,-2.5004,-7.7397,0.8477,-9.9945,-7.1544,2.9918,-7.7714,5.2158,-9.4543,-12.3130,4.8983,4.8845,1.0606,0.0
1741737601.632000,408,-3.9893,-2.5795,-1.3705,-5.0953,-8.2927,5.3681,-11.1567,-3.4719,1.4436,-8.4283,2.5322,-5.8189,-10.4258,4.4600,4.5403,-2.7867,0.0
1741737601.636000,409,-4.5820,-2.0822,-3.9609,-5.2494,-6.8787,6.3047,-9.1461,-3.7291,-4.2364,-15.2334,0.3879,-4.6658,-10.0813,3.1943,3.7397,-5.8443,0.0
1741737601.640000,410,-3.3932,-1.5212,-6.6234,-3.5778,-7.9364,7.0900,-9.4170,1.1699,-7.6516,-16.3040,-6.0532,-1.7660,-7.0775,1.0683,2.2855,-9.0273,0.0
1741737601.644000,411,0.5001,1.2280,-5.2875,1.3204,-3.7228,6.7286,-8.9668,-0.9215,-12.8498,-18.8685,-7.3216,-0.2341,-7.4747,-0.3336,1.6394,-15.8067,0.0
1741737601.648000,412,2.1022,-0.0204,-1.3172,2.5267,-0.5344,3.3364,-9.6911,-2.2014,-20.1404,-24.5673,-7.7223,0.8886,-6.0574,-1.8369,-2.5489,-23.0314,0.0
1741737601.652000,413,3.9794,1.1603,0.1474,5.4931,3.9908,2.8191,-4.4225,-2.7084,-25.7190,-24.1092,-9.6372,-2.0559,-3.0354,-2.1457,-7.1910,-28.4975,0.0
1741737601.656000,414,4.6317,-1.9880,-0.6248,5.3513,6.8241,5.1036,-0.0186,-4.1549,-26.9648,-24.5485,-7.9598,-2.6445,-3.1097,-2.7006,-7.7507,-30.6570,0.0
1741737601.660000,415,6.9286,-2.8498,-0.2462,4.1507,6.4867,2.0141,3.5085,-4.0423,-20.8793,-19.2878,-6.1218,-3.5309,0.1020,-3.4888,-9.8874,-28.4260,0.0
1741737601.664000,416,6.6938,-3.0167,0.2580,4.9118,8.1653,0.8142,6.5451,-2.3091,-14.1179,-9.8517,-3.4775,0.3557,0.9927,-1.2885,-7.6017,-21.1115,0.0
1741737601.668000,417,5.6878,0.1747,0.6426,3.5235,5.7861,0.7059,11.7602,1.5454,-4.7733,5.2366,-0.2533,-1.1080,1.8659,-2.7663,-6.0771,-9.9354,0.0
1741737601.672000,418,1.6245,0.5924,0.8702,-1.3978,2.5544,2.2532,13.8080,3.7309,3.2811,17.2484,3.5430,0.5438,2.9763,-1.2951,-5.7572,2.8473,0.0
1741737601.676000,419,-1.5447,2.5709,1.0476,-4.9796,-2.5818,2.2625,13.0143,1.9123,9.5369,24.9142,1.9026,1.7891,2.1717,-4.7900,-4.4045,11.7720,0.0
1741737601.680000,420,-1.9388,5.5877,-1.0406,-4.3106,-3.0125,3.1709,12.9587,2.4722,12.7352,26.5955,5.6939,2.2998,-1.2439,-6.6076,-5.1999,14.3799,0.0
1741737601.684000,421,-2.5866,6.6093,0.3266,-2.0321,-4.8538,3.9986,12.5799,2.3799,15.6604,25.5604,5.8825,-0.4186,-0.7752,-8.2817,-6.7855,12.5048,0.0
1741737601.688000,422,-0.9201,7.4541,2.3665,-3.9852,-4.5430,-0.0855,9.1493,1.9271,12.0301,21.8102,7.3142,-2.8114,0.2619,-3.7739,-6.3114,10.1246,0.0
1741737601.692000,423,-3.0826,8.2303,5.1632,-2.8975,-3.8957,-0.0388,4.6307,-2.9097,10.7510,18.2506,6.1107,-6.0635,-0.5165,-4.7214,-6.9517,10.1571,0.0
1741737601.696000,424,-1.7865,5.0550,7.3981,-1.9453,-1.4189,-3.0474,5.1111,-3.3677,11.0418,14.0819,6.9571,-7.8605,1.5817,0.2404,-6.6132,11.3485,0.0
1741737601.700000,425,-3.4111,1.0721,9.0400,0.2996,-3.5606,0.0252,1.3803,-4.1579,9.3946,8.9234,4.5742,-9.3347,0.1728,0.0837,-4.2611,11.5051,0.0
1741737601.704000,426,-0.8601,-2.4261,6.8596,-0.4584,-1.5249,1.6152,-1.2232,-3.2693,9.0571,5.7275,4.4372,-9.7963,3.0141,0.3974,-3.9031,11.5849,0.0
1741737601.708000,427,-2.9245,-1.7020,6.7949,1.3182,-1.4743,1.7389,-1.6202,-2.1940,8.1063,2.0065,2.1759,-11.5903,1.9949,0.1212,-4.4150,7.2837,0.0
1741737601.712000,428,-5.0834,-0.7906,4.2077,-0.4592,-2.1761,0.0533,0.2220,-2.4621,3.3143,-0.5991,2.6106,-10.7324,2.2849,0.5780,-3.8853,3.4460,0.0
1741737601.716000,429,-4.8259,-1.0851,2.6677,-0.1419,-1.8781,2.8607,0.9791,-1.7789,-0.9996,-5.3591,2.8273,-8.2431,0.8185,2.0425,-4.1585,-1.5143,0.0
1741737601.720000,430,-4.6681,0.4355,3.4078,-0.0571,0.2263,5.1186,1.4588,-0.9121,-4.1690,-4.9597,4.2478,-4.3256,-2.8532,-2.3373,-2.5573,-1.7466,0.0
1741737601.724000,431,-3.0032,1.8261,1.4576,2.0853,0.5696,3.9999,3.1902,-0.2912,-4.4929,-9.0973,6.4199,-3.5433,-3.5256,-1.1662,-1.1806,-3.9505,0.0
1741737601.728000,432,-3.6259,2.3696,2.1493,1.0229,2.0669,4.0707,2.6266,-2.7611,-7.0623,-11.9505,5.1670,1.1588,-6.0874,-2.9358,-0.8048,-11.3773,0.0
1741737601.732000,433,-4.4946,3.0675,2.0636,0.3128,1.8782,2.1795,2.2132,-0.6263,-11.0572,-15.2609,7.4098,0.7564,-7.5951,-1.7357,-0.7887,-15.1774,0.0
1741737601.736000,434,-1.8206,4.2392,-1.1441,-1.7928,2.3904,4.2729,1.3436,-1.6909,-16.7591,-17.2900,8.5447,0.9679,-5.8726,-2.4787,-0.2635,-23.6267,0.0
1741737601.740000,435,-4.6445,3.3768,-4.9070,-2.0847,4.7999,3.8725,0.3935,0.3734,-17.5813,-17.0939,7.3898,5.2265,-3.9141,-1.4951,-0.1904,-26.8114,0.0
1741737601.744000,436,-5.0028,4.9195,-3.4699,-1.8594,1.8164,5.0543,-0.6536,0.0320,-16.8455,-12.3497,4.0594,2.2441,-2.5061,-0.5132,2.9923,-20.7929,0.0
1741737601.748000,437,-2.4449,4.1990,-2.9823,0.6335,2.1234,3.5386,0.4336,1.2806,-12.8206,-5.9747,0.6007,1.8509,-0.2317,-0.8008,1.4667,-16.1792,0.0
1741737601.752000,438,-1.0830,0.6439,-1.4193,1.7662,1.2120,4.3691,2.5097,3.4945,-3.6782,6.1509,-2.8888,1.3674,2.2837,0.6692,3.6935,-5.0348,0.0
1741737601.756000,439,3.0924,2.0758,-0.0317,5.2928,-1.2411,0.7266,3.9323,4.2403,4.3718,15.7440,-1.3466,1.2402,6.4426,-0.2941,3.5745,4.4369,0.0
1741737601.760000,440,6.4183,1.0542,3.7225,5.7142,0.5129,2.0064,2.9125,3.9934,7.9589,21.0413,-4.8864,-0.9978,6.4274,0.1460,1.2082,10.0844,0.0
1741737601.764000,441,8.5740,-1.0423,6.4372,10.6314,1.5471,0.9520,6.5771,1.5952,10.7446,18.7804,0.1471,-0.6266,6.2735,1.3358,1.2798,10.4894,0.0
1741737601.768000,442,8.4329,1.1047,9.7730,10.2021,2.6290,-0.7737,6.2606,2.4344,10.8761,16.7022,2.8330,-2.3838,8.4566,-0.0780,-1.3719,10.2468,0.0
1741737601.772000,443,6.5332,-3.6523,5.3554,8.2824,2.0506,0.0823,7.0809,0.8561,11.3904,14.0314,2.3501,-3.1543,2.7678,0.1222,-1.3661,11.4624,0.0
1741737601.776000,444,4.9200,-3.7545,4.3342,6.4917,3.4240,-1.3583,3.8620,-0.3752,10.1411,10.7235,5.7639,-0.8506,2.3601,-2.6614,-2.4626,13.9869,0.0
1741737601.780000,445,1.0841,-0.2780,2.0433,6.1826,1.3640,0.5148,2.9686,1.9213,14.4702,10.5198,5.2924,2.3110,4.9540,-2.8209,-1.8282,14.8531,0.0
1741737601.784000,446,-1.4065,0.2186,-4.7111,-0.6320,-1.4764,0.4497,4.4244,2.2974,14.5218,8.0793,6.1339,2.0246,4.7710,-3.6973,1.4271,15.7974,0.0
1741737601.788000,447,-5.1648,1.6918,-5.5226,-1.0394,-1.2588,2.2234,1.7166,3.0312,14.6421,6.2612,6.5559,3.7878,3.4156,-4.7464,3.4752,16.1064,0.0
1741737601.792000,448,-4.4390,6.3838,-8.0420,-2.5462,-1.0672,2.2496,1.0064,3.7516,8.7698,2.9169,5.3693,4.0375,3.3706,-4.5880,0.8920,12.6734,0.0
1741737601.796000,449,-5.1535,4.8936,-5.9137,0.3558,-0.9904,2.4204,2.3303,4.0345,7.3881,0.9047,4.1311,2.9430,3.0577,-5.3679,1.8266,6.0189,0.0
1741737601.800000,450,-3.8970,5.8800,-4.2329,0.1665,2.7933,1.6764,1.2200,1.7501,2.7203,-1.3235,1.1870,3.1997,1.2731,-3.2532,-0.1185,0.4685,0.0
1741737601.804000,451,-3.7802,1.0499,-5.2879,1.1290,1.7645,-0.7661,0.7190,3.1731,2.2490,-2.4511,1.5623,0.0861,0.7123,-2.0001,0.4250,-0.3616,0.0
1741737601.808000,452,0.5520,-3.0443,-2.4099,3.3183,3.3415,-1.2735,0.0646,4.4354,-1.2848,-3.3502,0.3371,-2.5046,0.7119,2.3477,-0.3898,-5.3910,0.0
1741737601.812000,453,0.1582,-4.3469,-1.2209,3.6060,4.4613,-1.3893,-2.1347,0.4644,-4.6055,-6.6678,2.2125,-2.2957,2.2058,4.7692,-0.1423,-11.6567,0.0
1741737601.816000,454,1.2142,-6.0107,-0.4921,2.6584,3.9136,-0.8043,-1.3143,-1.4674,-10.0455,-9.1131,-0.4490,-3.7519,1.1991,3.3217,-2.9865,-13.7304,0.0
1741737601.820000,455,2.1359,-6.9684,1.1946,2.8663,6.0690,-2.9778,-1.7463,-0.3661,-13.8595,-12.9523,-0.8259,-0.0398,2.9346,2.4850,-4.1738,-19.1501,0.0
1741737601.824000,456,1.5141,-7.6842,-0.1128,1.6259,3.9158,-3.5959,-1.4729,-0.5366,-16.8103,-8.1545,-1.2981,-0.4698,3.5071,0.8959,-2.8316,-19.6730,0.0
1741737601.828000,457,0.6627,-4.5396,-0.4997,0.0300,2.1817,-6.2199,-3.0654,-1.3937,-14.6067,-2.7732,-3.5334,2.2006,6.1172,1.1051,-1.7123,-14.6228,0.0
1741737601.832000,458,1.1781,-1.1899,-2.5703,-0.2323,2.4816,-4.9778,-1.2001,-0.1060,-7.1211,2.9534,-4.8231,4.0778,5.4177,1.2740,-0.5239,-5.0657,0.0
1741737601.836000,459,2.1020,-1.2742,0.2072,0.6162,-0.7674,-6.3192,-1.3843,1.7203,3.6144,9.2817,-2.3477,7.2206,5.3383,1.3527,1.6122,4.9460,0.0
1741737601.840000,460,3.3325,-1.1551,1.4155,-2.1736,-1.4927,-4.9063,2.4989,1.7614,7.9694,16.1186,-1.0018,3.6378,4.4196,1.2346,5.5323,13.8913,0.0
1741737601.844000,461,4.0789,0.8949,0.2872,-1.7102,2.1196,-4.1297,0.6888,5.2646,11.6970,16.8334,-0.0510,6.9139,4.5153,2.3284,6.5021,18.8489,0.0
1741737601.848000,462,3.1773,-0.0619,0.0004,-1.3803,1.3375,-2.1919,-0.0255,6.9303,13.9027,17.2318,0.8394,6.3882,3.0635,6.6025,8.8495,18.9315,0.0
1741737601.852000,463,4.4753,-1.3028,-0.2448,-1.6052,2.7453,1.6689,-3.9942,7.3200,11.4680,10.0718,2.9083,4.3005,2.0927,5.6687,9.2771,16.6698,0.0
1741737601.856000,464,2.4514,-2.7712,-2.3246,-0.2591,0.2228,4.1824,-6.0307,4.7669,11.1650,5.7317,0.1048,2.4001,4.5382,9.7276,8.2639,14.5181,0.0
1741737601.860000,465,1.5294,-4.7891,-5.3096,-0.5756,-1.7152,5.7897,-6.5880,7.3344,9.1247,1.1190,1.8192,4.3764,4.3669,9.6211,7.5436,10.7828,0.0
1741737601.864000,466,1.4774,-2.8100,-3.5811,-0.2775,4.3595,5.2333,-6.7551,10.2759,9.6291,-0.3870,0.7078,4.6696,3.0487,10.1077,7.4525,12.4785,0.0
1741737601.868000,467,1.9247,-3.9625,-4.9669,0.4167,3.4480,3.4498,-4.2863,7.2816,4.9435,-0.1581,-0.5356,5.6359,3.5177,10.3335,6.1003,14.3557,0.0
1741737601.872000,468,2.8385,-2.8865,-2.6714,3.0093,7.6292,1.3550,-4.7352,5.4037,1.1966,-3.6629,-1.3251,4.9528,4.6526,8.6942,4.4375,9.5306,0.0
1741737601.876000,469,5.7625,-2.6815,-3.6586,3.8151,9.0949,0.9203,-3.8590,3.2238,1.4416,-3.6991,-0.9646,2.6861,2.6476,5.5330,1.6693,4.8576,0.0
1741737601.880000,470,7.7471,-4.4169,0.1210,4.4071,10.9811,-0.9764,-3.5021,2.6265,0.6945,-7.5152,-0.6429,2.6433,0.8402,5.9682,0.0412,2.4005,0.0
1741737601.884000,471,6.9756,-5.6692,-1.0211,5.9998,13.8763,-3.1404,-2.5387,-0.9547,0.5337,-8.8144,-1.7594,1.0858,0.3470,1.3954,-0.2068,-1.2634,0.0
1741737601.888000,472,5.3999,-1.8500,-2.5778,4.7526,13.3026,-4.5914,-0.3763,-0.4235,-0.9955,-7.1883,1.7887,0.2332,0.3349,2.3210,-2.2027,-3.1005,0.0
1741737601.892000,473,5.8141,-2.4307,-0.7964,4.9411,11.4271,-1.3413,-0.2496,-0.5361,-7.5117,-4.4236,0.6417,2.0061,0.3814,0.2583,-1.8099,-3.8286,0.0
1741737601.896000,474,4.8635,0.9239,-2.0761,3.9423,8.4447,0.6195,-0.0831,0.6657,-6.3021,-6.9392,-0.1427,2.9376,-1.2690,0.0265,-2.4314,-9.4288,0.0
1741737601.900000,475,1.9774,-1.1328,-0.2243,2.1199,1.4046,2.4488,-2.5361,0.8353,-10.6500,-8.6634,-2.6734,3.3868,-2.0361,-1.4468,-4.3924,-12.8557,0.0
1741737601.904000,476,3.9570,2.3006,-3.8360,1.4131,-0.0029,1.6464,-2.9857,-0.9488,-13.5414,-9.2585,-3.4611,2.8307,-0.1211,-1.9445,-5.7947,-15.7705,0.0
1741737601.908000,477,3.7838,3.9016,-1.5506,-0.0057,-1.9137,1.3557,-3.6284,0.1933,-17.3271,-4.9279,-4.2773,1.6793,2.9312,-0.8445,-7.5928,-15.2959,0.0
1741737601.912000,478,3.9873,4.0631,0.2369,0.3575,-4.1767,0.6852,-3.3085,-1.9638,-9.2905,-3.1809,-2.1815,1.4501,0.4813,-2.4078,-7.0495,-9.0341,0.0
1741737601.916000,479,5.1542,2.9605,0.4729,-1.9927,-5.0706,-1.2985,-1.9600,-1.7308,-1.4698,4.2895,-2.2753,-0.9322,0.5507,-0.4732,-3.4274,-0.5783,0.0
1741737601.920000,480,4.5525,2.2051,1.6432,-1.0942,-3.0185,-5.0116,-0.3239,-2.3922,9.4414,9.6961,-4.4156,-2.7014,1.1245,0.8272,-1.2348,10.3390,0.0
1741737601.924000,481,6.2237,-1.9740,2.6148,0.4619,-2.4873,-3.1921,-1.0946,-4.8832,16.6671,12.9739,-4.1152,-5.1858,2.1728,3.6242,2.3416,18.4689,0.0
1741737601.928000,482,6.9390,-1.3455,1.6070,-1.9518,-0.0012,-6.9662,-2.6788,-7.6058,17.6912,13.7515,-3.0805,-5.8127,2.1294,3.0001,1.5744,19.5807,0.0
1741737601.932000,483,3.1016,-4.7575,-1.7083,-3.6065,0.8776,-8.8284,-2.9066,-6.8166,15.9923,10.6958,-2.0871,-6.2889,3.6302,7.0354,1.6673,20.8462,0.0
1741737601.936000,484,0.4756,-1.6671,-1.8766,-4.6958,1.0257,-7.4699,-4.7977,-6.7400,13.1246,7.6893,-2.0338,-5.0995,5.0186,7.3260,4.5018,15.6365,0.0
1741737601.940000,485,-0.2712,-2.0866,-0.7377,-4.4685,1.4151,-2.8835,-3.9383,-6.5400,8.7226,3.3702,-2.6280,-3.7426,3.9549,5.5273,4.6218,13.3320,0.0
1741737601.944000,486,-1.4726,-4.1071,-4.4137,-2.8857,-0.5106,-1.3238,-1.2567,-5.0968,6.4596,0.4967,0.1670,-0.4375,1.6667,3.7591,3.1405,12.0389,0.0
1741737601.948000,487,-0.3668,-3.0654,-3.3813,-2.8750,-2.1542,-1.6221,0.0082,-4.2589,5.8249,-0.6129,-1.1942,-1.6464,-2.8102,4.2427,1.2515,10.2411,0.0
1741737601.952000,488,-1.1662,-1.9276,-3.2197,-4.5623,-0.7032,0.4961,0.3189,-3.1867,5.1540,-0.7197,-0.3991,-0.5500,-3.7834,1.4514,3.1738,5.3417,0.0
1741737601.956000,489,1.4270,-3.6198,-7.3246,-1.9821,-2.1448,5.6813,0.1088,-0.5225,3.1027,-2.9590,2.2353,-0.5698,-7.4634,0.7521,1.6851,1.1039,0.0
1741737601.960000,490,-1.3926,-3.7824,-5.3480,-2.5487,-3.0243,7.3114,0.4595,1.7116,-1.7760,-6.6821,3.1155,-2.1989,-5.0838,1.4237,2.6104,-2.5593,0.0
1741737601.964000,491,-0.0655,-2.6544,-5.0049,-2.2766,-0.4714,8.9733,1.5623,5.9967,-4.4040,-8.4016,4.1170,-1.2094,-6.3050,0.4315,2.0022,-6.7584,0.0
1741737601.968000,492,-0.0198,-3.5932,-1.3206,-1.4832,-0.0524,9.4345,0.9576,6.1698,-8.1179,-10.1137,2.5573,-0.6227,-3.9762,0.4077,2.1035,-10.9427,0.0
1741737601.972000,493,-0.1688,-2.0800,-0.2876,-1.5721,0.2927,9.1921,-2.5789,5.3579,-11.1610,-9.7900,-0.7351,-0.7613,-3.2515,-1.4686,0.1167,-11.5154,0.0
1741737601.976000,494,1.7919,0.7725,2.5879,1.4289,2.3150,7.5578,-0.4674,5.0138,-13.8055,-8.5400,-4.5385,-1.5661,2.8754,-3.7655,-3.6603,-11.3552,0.0
1741737601.980000,495,3.2089,1.7218,3.2309,3.6749,1.2861,8.1498,-1.1307,1.8479,-18.9139,-9.2665,-6.3197,0.9852,5.7264,-4.0360,-8.1102,-15.1701,0.0
1741737601.984000,496,5.1313,3.8679,6.0187,4.7613,1.1270,5.0315,2.7174,-1.2087,-21.1201,-10.8092,-6.4582,2.2104,6.8680,-4.4237,-10.3181,-17.9738,0.0
1741737601.988000,497,5.7587,4.5579,10.2733,4.6041,-0.2080,1.8314,3.7629,-2.5067,-20.3958,-13.2788,-2.8956,0.6781,6.3695,-3.0100,-16.6884,-20.3537,0.0
1741737601.992000,498,6.1658,2.4983,11.6321,3.6631,1.3658,2.5618,5.4277,-5.3809,-16.3769,-7.6955,0.8155,-0.5288,5.4065,-4.6836,-15.2262,-17.2665,0.0
1741737601.996000,499,7.0945,5.5062,12.6770,2.6178,2.4806,3.0218,9.6803,-6.5165,-8.8649,1.6562,1.6675,-1.1641,4.5032,-6.6851,-16.2530,-6.4085,0.0
1741737602.000000,500,3.2377,4.7325,10.4335,1.0140,-0.6689,2.5681,8.2615,-8.5130,2.3239,6.1169,10.3427,-1.2967,2.0731,-2.9683,-9.4331,4.2389,1.0
1741737602.004000,501,-1.9178,7.6807,8.0729,-1.8575,-2.3614,2.1567,8.5645,-5.1245,13.8225,14.3390,11.2125,-1.1556,1.4017,-4.6203,-2.7292,16.9575,0.0
1741737602.008000,502,-4.8903,8.3230,4.9210,-8.0787,-8.3604,1.8251,9.1612,0.5646,19.1357,20.6252,13.4923,0.5088,-1.0434,-5.4108,3.2436,24.5584,0.0
1741737602.012000,503,-9.7261,9.7669,1.9646,-10.3133,-6.6887,5.0026,4.5066,0.9156,22.6709,20.6407,14.9698,-0.6056,-3.4823,-3.1268,8.2139,28.5506,0.0
1741737602.016000,504,-14.0324,9.2856,-1.7628,-11.8180,-8.1468,6.1060,2.3110,-0.6796,18.5525,15.7605,12.2311,2.3695,-5.3520,-2.0129,5.7736,27.3928,0.0
1741737602.020000,505,-12.1001,10.2662,-3.0269,-12.5352,-8.9866,5.9367,-1.0044,0.1343,15.8263,10.0155,11.4954,1.2951,-7.6254,-2.6691,8.2565,22.6114,0.0
1741737602.024000,506,-10.4742,9.0246,-2.2849,-8.8285,-5.2830,5.6165,-2.3262,-3.5194,12.7889,7.6915,6.1677,-1.1990,-4.7304,-2.0004,6.0513,14.6527,0.0
1741737602.028000,507,-5.5366,7.7767,1.1600,-3.1573,-4.8533,4.2216,-2.1764,-3.1467,9.9798,3.1926,5.2582,-4.0154,-5.4386,0.0847,8.0208,12.8014,0.0
1741737602.032000,508,-2.9955,3.5401,4.2813,-1.3772,-4.9523,1.3769,-2.7766,-1.8906,6.1347,-1.1799,3.1856,-8.3376,-4.9177,1.8846,7.0756,6.9637,0.0
1741737602.036000,509,-0.6258,0.7374,6.3080,1.9805,-1.9604,5.0626,0.2464,-1.8261,1.2622,-3.6491,2.4559,-9.4604,-6.1101,2.3478,4.5785,1.7145,0.0
1741737602.040000,510,1.5918,-4.3121,5.3422,3.7503,-0.6098,4.2191,-0.8270,-0.9626,-3.5449,-7.0045,1.2283,-9.9831,-4.2290,2.3050,2.0468,-4.9844,0.0
1741737602.044000,511,1.9944,-3.3844,5.2040,6.9038,1.9886,8.2964,0.0687,1.1693,-6.2152,-8.5757,-0.1099,-5.5101,-2.8159,0.9171,1.2135,-8.1064,0.0
1741737602.048000,512,1.4282,-5.8555,5.7622,7.7365,-0.3192,9.6375,-0.6086,3.1329,-10.5456,-9.1195,0.5636,-3.1576,-2.1138,-2.8151,1.4456,-11.2085,0.0
1741737602.052000,513,3.0364,-2.6000,2.0028,3.9703,-3.0139,11.0381,4.9910,4.5353,-12.1132,-6.2785,1.0448,-0.0658,-0.5840,-7.4918,-1.6922,-13.5545,0.0
1741737602.056000,514,0.9302,1.8748,2.4651,0.4636,-3.1360,10.3430,4.6572,4.5501,-14.4571,-4.1982,3.5916,1.3336,-0.2836,-7.9726,-4.7205,-14.2118,0.0
1741737602.060000,515,-4.0844,6.6562,0.3436,0.0606,-3.2935,8.5385,8.7364,2.2680,-14.9853,-5.4532,3.5672,3.3727,-1.5490,-9.7495,-5.5344,-16.3264,0.0
1741737602.064000,516,-3.0596,7.6120,1.5238,-3.3685,-1.6387,6.7260,8.5456,-0.3150,-18.3218,-6.2760,2.1384,5.1075,-1.0169,-9.5990,-4.2535,-18.7433,0.0
1741737602.068000,517,-0.5299,10.1126,3.4647,-2.5283,1.6067,3.6848,7.6474,-2.3129,-20.1620,-5.8053,5.2891,7.9750,0.1342,-9.6560,-8.1220,-20.8209,0.0
1741737602.072000,518,-3.1601,11.7961,2.1254,-5.2070,-0.6753,1.7609,5.0813,-2.6881,-18.2317,-10.3470,7.6415,6.5152,1.1997,-4.8927,-10.2844,-23.9870,0.0
1741737602.076000,519,-4.5426,9.4847,2.2888,-3.4353,-1.6016,-0.1505,4.4792,-4.5399,-15.1985,-6.3544,7.5576,0.6115,3.4330,-3.0750,-8.5628,-21.3237,0.0
1741737602.080000,520,-3.2560,7.0258,1.9649,-2.8736,1.7454,-1.7715,2.6059,-5.3000,-7.5828,-2.6397,7.1150,-1.5203,5.4075,-0.7212,-6.7012,-11.1185,0.0
1741737602.084000,521,-3.5247,6.5008,3.2091,-3.5539,2.5274,-2.1128,2.0341,-3.4673,1.5145,7.9011,5.4336,0.3963,6.7194,3.7909,-2.7834,1.9558,0.0
1741737602.088000,522,-2.7296,4.4132,2.8330,-3.8698,0.9914,-4.0797,-0.7475,-3.9540,11.7236,15.4490,4.9840,-0.7402,6.4983,5.2572,4.3195,16.5678,0.0
1741737602.092000,523,-2.8875,1.5888,3.1901,-2.9277,0.1098,-1.9460,0.4365,-0.3790,18.1335,21.1475,5.9098,-3.6576,6.9531,9.7177,4.2359,22.4455,0.0
1741737602.096000,524,-2.7283,1.5479,2.9801,-0.4996,-0.5466,1.9523,0.8178,-1.1635,20.8076,17.8870,5.0793,-4.2636,1.7830,9.1607,1.5572,25.7867,0.0
1741737602.100000,525,-2.0890,-1.0115,3.0882,1.8971,-0.1159,2.9129,0.0475,-0.0831,19.6110,15.8235,6.2630,-5.2688,-0.6008,5.8298,2.1887,21.8130,0.0
1741737602.104000,526,-2.6894,-2.5922,1.7692,3.8205,-0.2367,1.1630,1.0684,0.7416,19.0771,10.1659,4.3842,-5.3131,-2.0917,4.8837,3.7332,20.1949,0.0
1741737602.108000,527,-1.8988,-1.7618,0.5673,4.1236,0.4670,2.7245,0.9043,2.5485,15.0673,5.3105,6.5657,-3.4549,-4.0002,3.5527,6.3243,16.7716,0.0
1741737602.112000,528,-2.7562,-3.0499,-2.3427,2.3495,3.2779,3.4445,-1.2309,4.6265,12.7612,2.5702,9.3421,-1.1137,-3.4990,2.6208,7.4975,14.7816,0.0
1741737602.116000,529,-1.9760,-0.6479,-2.5600,2.0714,3.6558,5.0483,-0.0706,6.1686,10.5229,0.5567,6.4235,-0.7138,-4.0570,0.2011,6.9768,13.1028,0.0
1741737602.120000,530,-3.5105,-1.3902,-4.3888,2.2933,8.6806,7.8758,-2.8628,7.5465,9.9173,0.3065,6.0739,1.7606,-1.9557,1.4627,8.2442,8.9926,0.0
1741737602.124000,531,-2.8565,0.2020,-5.4590,5.0668,9.2319,5.9599,-2.3263,7.2254,1.3455,-2.7569,0.4318,1.0680,-0.9068,0.2084,7.9589,3.1715,0.0
1741737602.128000,532,-1.7331,3.4323,-3.2364,6.0673,8.5043,6.4125,-2.7758,6.2988,-3.8392,-4.6109,-2.7842,5.5982,3.6164,-1.3331,5.0064,-0.9303,0.0
1741737602.132000,533,1.6938,2.9144,-2.1145,3.8236,7.0145,5.7487,-3.4878,5.9047,-7.5214,-3.5967,-5.2361,5.4636,2.9140,-0.8641,3.9185,-5.7725,0.0
1741737602.136000,534,5.7068,2.4464,-0.9342,6.6925,7.9060,2.1003,0.9975,4.8080,-12.1209,-4.9729,-4.4480,3.7758,5.6115,1.9409,0.5468,-10.1303,0.0
1741737602.140000,535,8.0263,2.1683,0.9446,8.4479,9.3689,-0.7197,4.1635,0.2161,-11.0988,-3.7496,-4.5289,2.8778,4.2099,1.1975,-2.5129,-14.7200,0.0
1741737602.144000,536,10.0658,1.6513,1.6829,10.5288,8.5151,-0.1126,1.3220,-0.8019,-13.1274,-3.9754,-3.3723,2.2789,5.2674,0.6368,-7.6616,-16.0834,0.0
1741737602.148000,537,10.7489,1.1410,5.6788,10.3749,8.9559,-2.3761,2.4942,-5.9465,-11.9528,-4.7265,-3.1214,1.5592,4.6973,1.2881,-8.7289,-19.3389,0.0
1741737602.152000,538,11.1631,-0.3002,5.5603,6.6648,5.6648,-5.9601,2.0165,-5.4509,-15.6783,-6.1768,0.5338,2.2797,3.9750,4.0058,-8.5945,-21.2278,0.0
1741737602.156000,539,4.0573,-0.8231,1.4389,6.6975,3.3717,-5.1257,0.1719,-6.4871,-13.2121,-8.0701,3.0733,2.8036,3.2316,5.5222,-6.3401,-21.5790,0.0
1741737602.160000,540,3.2506,0.4870,-0.0201,3.8934,1.0716,-4.1668,-1.3842,-7.0807,-8.0881,-3.4455,5.1312,4.0732,3.5301,6.0943,-6.5899,-15.5285,0.0
1741737602.164000,541,2.1407,0.2640,-4.0273,-0.2467,0.6783,-5.7943,-3.5473,-7.0324,0.3318,0.5868,3.9150,4.1618,3.3458,4.9491,0.5540,-3.6484,0.0
1741737602.168000,542,1.5237,1.5785,-5.4533,-0.8395,0.6109,-5.9337,-4.5618,-4.5112,10.6844,11.0034,2.1573,5.5547,4.5711,3.5652,4.5059,9.0440,0.0
1741737602.172000,543,1.2586,1.2932,-3.2147,-2.7975,-0.5085,-6.6655,-5.3996,-3.1871,19.2005,16.7866,-1.0722,3.3655,5.5409,2.3627,7.4122,18.9610,0.0
1741737602.176000,544,2.1492,-2.5232,-4.3566,0.4273,-1.6711,-2.9141,-4.4100,-1.6367,23.3541,14.9198,0.0251,2.0159,4.4772,4.9803,7.3276,24.5259,0.0
1741737602.180000,545,5.0591,-2.1882,-7.2838,3.9674,-0.3544,-4.1835,-2.2620,-1.6501,24.1592,13.3839,-1.3743,-2.1580,2.7394,10.2065,5.6558,23.5867,0.0
1741737602.184000,546,6.9417,-5.3570,-3.1589,5.8641,2.3374,-3.1897,-5.7332,-3.3044,22.0735,10.1243,-2.6154,-5.2827,2.5782,6.7840,5.3581,20.0155,0.0
1741737602.188000,547,9.5964,-8.5568,-2.6442,8.0894,5.1498,-1.8577,-4.3427,0.6957,17.8546,4.7657,-1.3565,-4.3028,3.8845,7.3024,6.9408,17.5635,0.0
1741737602.192000,548,6.7957,-10.2593,0.3171,7.7408,3.8774,1.5062,-3.0233,2.5382,15.2257,0.3378,-2.9804,-4.9224,4.6053,8.7160,5.5691,14.4898,0.0
1741737602.196000,549,6.8032,-11.4638,-0.8568,4.3620,4.1575,3.9042,-0.9142,7.9179,11.5068,1.7315,0.5040,-2.9305,4.2773,6.6663,5.7212,12.9656,0.0
1741737602.200000,550,6.5510,-11.7394,-5.6099,4.2143,2.8734,7.0642,-0.9890,8.0998,9.0071,-0.3669,-0.1872,-0.8479,1.5981,5.3104,2.7682,10.6810,0.0
1741737602.204000,551,6.7692,-8.4852,-6.9687,3.2883,3.5200,8.4935,1.0540,10.5441,7.0459,-0.7728,-3.3093,1.8676,5.1754,0.7577,3.1073,6.5226,0.0
1741737602.208000,552,4.0897,-5.1245,-3.4876,5.5739,7.2666,5.9277,4.4549,10.1073,1.9842,-1.1598,-2.6600,6.5595,3.4842,0.6691,2.7221,3.2419,0.0
1741737602.212000,553,4.0841,-1.9652,-3.9344,1.2493,9.8356,6.2929,4.0618,7.5417,-4.4909,-3.8629,-2.3263,10.2403,3.1464,-2.1452,2.8885,-0.8322,0.0
1741737602.216000,554,3.8611,1.3398,-3.0302,0.8199,9.5195,3.9269,7.4633,7.1315,-6.3884,-4.1850,-0.1075,10.0840,6.1588,-0.8818,-2.2007,-3.8582,0.0
1741737602.220000,555,4.7836,2.2967,-2.4651,2.2625,11.4007,3.3587,5.8917,1.8904,-8.3110,-3.1532,0.2864,9.5516,5.9371,-2.3171,-4.2585,-8.9893,0.0
1741737602.224000,556,4.3567,2.5409,-0.2470,3.4644,10.2770,2.5970,6.6814,-1.7954,-8.3618,-3.6658,-0.3440,7.2831,7.0973,-0.5395,-5.4364,-10.6692,0.0
1741737602.228000,557,5.4979,2.3029,2.0232,3.0464,9.8193,-4.5414,5.4560,-3.0619,-9.3515,-5.5611,0.3481,6.4309,8.2839,-0.5462,-5.8268,-13.3299,0.0
1741737602.232000,558,5.8148,3.4093,2.9493,0.3894,7.7725,-3.8186,3.3188,-4.2237,-13.7913,-2.9412,1.9302,5.5436,11.8640,0.4998,-7.5697,-14.1025,0.0
1741737602.236000,559,3.6258,2.8577,4.8938,-2.5749,5.0427,-4.1365,2.3768,-4.7181,-15.2635,-3.3509,2.0996,4.8334,12.1095,1.3612,-8.8269,-14.0582,0.0
1741737602.240000,560,4.5470,2.2232,6.4293,-2.9165,0.8776,0.1999,2.5283,-5.3951,-15.3329,-4.7102,3.7615,4.3411,8.2994,4.5979,-8.6549,-14.6457,0.0
1741737602.244000,561,3.1997,1.6828,5.9370,-3.0242,-2.6208,1.4275,0.6054,-3.9072,-7.7020,-1.9678,3.2320,2.3800,8.8305,4.4786,-7.9763,-8.7746,0.0
1741737602.248000,562,2.9140,0.4485,5.1899,-2.8912,-5.2451,-0.7785,-1.7321,-6.6328,-0.6844,4.1423,0.6018,1.0395,7.9440,3.6536,-3.3521,1.2858,0.0
1741737602.252000,563,4.5991,2.4209,5.2379,-0.3989,-5.1566,0.4063,-1.2648,-1.0669,9.0281,11.6339,4.1088,0.5362,5.1671,2.4773,0.7014,13.0274,0.0
1741737602.256000,564,1.8003,4.3926,6.4692,-1.5737,-8.1107,-0.2752,-0.6489,-2.4910,14.7934,14.5448,5.3546,4.1203,5.0431,5.9666,6.1386,25.2549,0.0
1741737602.260000,565,-0.1246,1.0280,4.1205,-5.4175,-8.9223,2.8175,-3.5849,0.0706,20.1879,11.7948,7.9568,2.0468,-0.9125,5.6030,9.9935,28.7942,0.0
1741737602.264000,566,-1.7154,-0.8965,1.9248,-3.9314,-4.8175,3.3010,-4.3762,-0.5495,19.2992,8.3612,6.9725,2.3730,-1.3771,5.2086,10.2606,27.6199,0.0
1741737602.268000,567,0.8924,-0.7551,-0.2836,-4.8283,-1.1772,3.0182,-6.2234,0.6356,18.0631,1.8665,3.8482,2.0918,-1.0022,4.7820,13.8585,23.9905,0.0
1741737602.272000,568,-0.2171,0.6546,-2.1379,-1.3901,0.8576,5.4565,-8.2610,2.1328,11.9138,-1.9819,3.2957,1.2914,-0.1048,5.0876,10.6772,18.5773,0.0
1741737602.276000,569,-2.4508,-0.0325,-3.3812,-5.1376,1.2373,3.3461,-8.4316,2.7642,8.1694,-3.6911,0.8572,3.0205,1.5623,4.6635,12.7145,14.8898,0.0
1741737602.280000,570,-1.3627,0.3559,-2.5772,-4.7030,2.1744,8.8782,-4.5727,2.7829,2.6875,-5.8730,-2.1785,4.2888,1.7940,1.1286,10.1416,10.7475,0.0
1741737602.284000,571,1.7636,1.9473,-1.6873,-1.7163,1.5216,5.8103,-1.1808,5.5789,0.3577,-7.6027,-0.1213,7.2887,1.0423,4.5611,8.1271,6.7091,0.0
1741737602.288000,572,2.3202,-1.0389,-3.9379,-1.8319,4.4854,7.4825,-0.9280,4.2342,-3.2329,-7.5595,-0.0021,6.2235,-0.5738,2.7099,5.9489,2.0818,0.0
1741737602.292000,573,7.0496,1.2557,-0.2842,3.5218,4.7088,6.2084,-0.3551,3.2797,-5.3786,-5.5692,-1.1413,4.8815,-1.1342,1.1950,4.5589,-6.4581,0.0
1741737602.296000,574,5.7232,1.7255,2.3844,1.5725,5.1324,3.9321,4.0374,3.1454,-9.4281,-6.3857,-0.6334,5.1537,-1.6932,-2.0830,0.8097,-10.5637,0.0
1741737602.300000,575,4.3352,1.3406,1.7301,2.5170,4.2444,5.6794,5.9705,3.5727,-9.5718,-7.6023,2.1487,5.8186,-2.2516,-0.5199,0.4302,-13.2215,0.0
1741737602.304000,576,3.7845,0.8467,-0.8540,1.0360,4.7140,4.3730,10.0962,2.2577,-9.5034,-6.2986,2.8006,4.5186,-0.8769,-1.5402,-1.8532,-13.3343,0.0
1741737602.308000,577,1.0424,1.7431,-0.3359,-0.0572,2.7137,3.6004,7.4903,0.1285,-10.5213,-2.9656,6.1433,3.6412,1.2728,-3.0011,-2.9630,-15.9645,0.0
1741737602.312000,578,1.4091,2.7872,0.1382,-1.9712,1.8003,1.7456,4.6081,-0.4155,-11.7599,-2.5522,4.5865,1.5677,3.1429,-3.0421,-4.9763,-15.6262,0.0
1741737602.316000,579,0.7359,6.1005,-0.1165,-0.8338,-0.3648,1.3651,2.6935,-2.4278,-16.2034,-4.1084,2.0138,2.1326,4.6177,-4.3660,-9.9959,-17.8230,0.0
1741737602.320000,580,-0.2919,5.1890,2.5383,-3.0063,-2.3073,2.2765,2.3319,-2.3150,-16.8773,-6.4336,-0.6264,2.5724,6.6292,-5.1570,-10.6678,-17.2700,0.0
1741737602.324000,581,-1.4968,3.2974,1.3486,-3.8224,-4.0856,0.9140,-0.0522,-3.2465,-15.1960,-8.4770,-1.4964,1.1214,7.8820,-5.3774,-14.2540,-14.0234,0.0
1741737602.328000,582,0.8207,5.2912,2.6245,-2.6976,-6.4644,-0.4784,-0.0373,-7.4935,-7.1700,-3.0269,0.2402,-1.8143,5.9019,-3.6504,-11.1132,-10.2300,0.0
1741737602.332000,583,1.4482,4.0336,5.1353,-0.6178,-4.4715,-4.3791,-0.8395,-6.7085,0.3782,4.5888,2.3118,-6.2248,3.9617,-1.8470,-7.8809,2.6037,0.0
1741737602.336000,584,1.5900,5.2225,7.3876,-0.4658,-1.9548,-5.1213,2.2139,-4.7775,10.2691,9.2775,2.0860,-7.2272,3.6643,-0.0997,-6.9378,12.4385,0.0
1741737602.340000,585,-0.0942,0.1233,4.9559,-2.8918,-2.3731,-4.0586,3.6162,-5.0522,17.9484,13.9851,6.5154,-7.4641,2.4898,2.2721,0.0590,22.8998,0.0
1741737602.344000,586,-3.5913,-2.7505,2.3526,-4.1730,-1.9932,-0.8260,2.5248,-4.6845,22.5454,17.2688,7.1432,-7.2350,-2.1289,5.9115,4.5307,28.2409,0.0
1741737602.348000,587,-5.2815,-4.9875,-3.0941,-7.5474,-1.3793,-0.1160,0.6427,-2.5520,22.4549,12.2288,7.4974,-5.8084,-1.8997,3.7094,6.2798,25.0354,0.0
1741737602.352000,588,-7.6433,-2.0884,-6.1085,-6.6390,-2.3947,-1.7602,0.3492,-4.2750,17.8161,10.5058,7.7589,-3.6718,-1.6056,5.9713,7.2774,21.6988,0.0
1741737602.356000,589,-10.7784,0.2377,-10.0047,-9.1944,-2.8351,-2.0553,-2.1596,-2.5674,13.3059,4.2063,5.3154,-2.5363,-5.3664,3.8554,9.5813,17.4031,0.0
1741737602.360000,590,-12.9227,-1.6260,-7.6872,-8.1847,-0.8543,1.9434,-2.0952,-2.9527,7.2530,0.0039,1.8602,-0.8465,-5.1225,3.2741,8.6404,10.2282,0.0
1741737602.364000,591,-10.0387,-0.3356,-11.2361,-4.7973,-0.6635,0.5529,-3.7776,-1.0962,3.2760,0.5675,3.6678,1.4653,-5.6548,4.7974,11.9265,8.5409,0.0
1741737602.368000,592,-6.0272,-0.6646,-8.2652,-3.2549,1.3587,4.4519,-3.2986,-0.8323,-0.3368,-4.8954,-1.2057,2.1279,-5.0624,7.2153,9.0251,0.7646,0.0
1741737602.372000,593,0.7284,-3.2388,-6.4986,1.3259,3.0582,2.1122,-2.3648,-0.9260,-5.6149,-5.4082,-0.3310,-0.2028,-6.6881,3.6174,7.6719,-4.0977,0.0
1741737602.376000,594,3.2501,-4.6151,-6.0898,2.5653,3.9997,0.4728,-1.7788,1.8637,-8.4890,-7.2875,-1.0568,-1.6629,-4.8222,6.6399,4.9537,-12.7520,0.0
1741737602.380000,595,4.1027,-6.4797,-3.1349,4.6351,5.4452,2.5437,-4.4518,4.2818,-11.5168,-9.4981,-2.4163,-2.9892,-1.6437,7.0993,2.7743,-17.1441,0.0
1741737602.384000,596,4.8925,-7.3976,-1.9494,4.7555,6.0079,5.1817,-2.6071,5.4351,-15.8131,-11.2808,-3.9583,-1.6131,1.1408,7.9628,-0.1864,-19.3051,0.0
1741737602.388000,597,6.8949,-7.4462,-2.6506,4.9447,4.4315,5.6758,-3.2934,4.8349,-16.6357,-9.4126,-3.5185,-0.3991,5.2435,7.3025,-4.9033,-17.2861,0.0
1741737602.392000,598,9.3322,-7.6124,-3.5875,7.1259,6.4870,6.8072,-1.1202,4.0461,-18.1719,-8.4669,-4.7422,0.1514,5.1784,7.0819,-4.2783,-19.0458,0.0
1741737602.396000,599,8.8865,-4.1892,-4.2776,7.2298,4.7825,4.7002,-1.5371,2.5477,-17.6343,-9.5319,-5.2058,1.8264,5.5231,0.0675,-8.3982,-20.7575,0.0
1741737602.400000,600,6.2174,-1.6006,-1.2957,5.5496,3.8275,-0.9815,-0.8232,1.4823,-17.3379,-12.1309,-2.5176,0.6075,6.0005,-1.1921,-11.8665,-20.9755,0.0
1741737602.404000,601,3.8204,-0.3242,-3.6221,3.1240,5.3988,-0.3601,0.8780,0.3715,-18.2073,-11.5569,-0.5955,5.4728,6.9929,-4.0569,-14.3428,-21.4966,0.0
1741737602.408000,602,2.4634,2.1995,-4.0505,5.6561,2.7729,-0.9750,0.7159,-1.7942,-12.9042,-9.5686,-0.7591,4.8364,6.4126,-2.0956,-12.7123,-16.2299,0.0
1741737602.412000,603,1.4261,2.5562,-3.7682,4.2655,4.8447,-3.8071,1.1620,-2.2557,-4.3889,-3.5985,2.7821,4.0100,4.6748,-5.0480,-11.4515,-8.7299,0.0
1741737602.416000,604,2.8784,1.5176,-4.9178,4.4170,3.4758,-3.1416,2.4909,-1.3840,8.0301,3.2061,3.9010,-0.7792,1.9991,-2.2426,-7.4982,3.2537,0.0
1741737602.420000,605,1.2223,-1.5651,-4.4845,1.8237,2.6433,-3.4833,0.0753,-0.7113,14.7830,13.2628,4.8226,-0.8840,-0.2462,-2.2492,-1.6776,13.3927,0.0
1741737602.424000,606,-1.3478,0.5603,-7.6227,-1.3916,0.8179,-3.9402,2.0215,1.2974,24.6920,19.5191,5.5370,-2.4240,1.3776,-2.0430,1.7661,22.7395,0.0
1741737602.428000,607,-3.5394,-2.2315,-10.1922,-1.9203,0.1782,-5.9352,-0.8044,4.0277,26.0549,19.2672,2.1952,-2.6395,3.0998,1.4904,6.0996,27.2625,0.0
1741737602.432000,608,-3.8316,-3.1485,-7.0699,-1.7993,-1.3346,-3.9628,-0.9490,4.1167,23.3910,19.5097,2.3647,-4.7618,2.1591,1.5751,7.5094,27.0343,0.0
1741737602.436000,609,-0.9403,-5.0354,-7.6897,-0.9972,-2.7980,-4.2431,-2.0582,1.5174,21.5516,12.9676,0.2663,-3.8131,0.5861,2.9033,7.1802,19.6638,0.0
1741737602.440000,610,-1.7194,-4.4845,-8.2651,-1.1660,-2.0148,-5.4818,-3.1974,-0.8800,17.1967,9.5737,-1.4599,-7.2126,-0.8854,1.1679,4.5823,14.0733,0.0
1741737602.444000,611,1.1242,-8.5271,-6.8505,0.7051,-1.4165,-7.2480,-4.3220,-2.5152,12.6594,8.2745,-3.6306,-6.2612,-2.6676,1.1669,3.5687,9.6160,0.0
1741737602.448000,612,3.0089,-7.5576,-6.0506,2.6509,0.0735,-9.7730,-2.7783,-1.5075,9.4280,6.5519,-4.6943,-4.5010,-1.9685,0.7110,4.2835,5.1971,0.0
1741737602.452000,613,1.3397,-12.1386,-7.2147,0.9775,-0.1944,-8.9652,-3.0685,-1.7740,4.5056,3.5324,-3.5088,-5.8351,-0.9817,0.6584,5.5733,1.5027,0.0
1741737602.456000,614,1.6486,-12.0046,-8.0538,2.1889,0.6812,-9.4085,-3.3449,-1.9256,0.3687,-1.6216,-5.8580,-3.4906,-3.1136,1.6976,5.3060,-2.3117,0.0
1741737602.460000,615,0.4905,-14.5823,-8.3161,-0.3964,1.9789,-8.2291,-3.2501,-2.7687,-3.8478,-5.2291,-9.6544,-3.1552,0.7438,0.7310,2.0159,-6.8956,0.0
1741737602.464000,616,1.7126,-14.4774,-7.4312,0.2707,2.0005,-4.9388,-5.8914,-1.1548,-8.4646,-7.2752,-8.9719,-0.5959,3.9462,0.6492,3.3976,-10.6444,0.0
1741737602.468000,617,2.3637,-11.4484,-9.2455,-2.8785,1.3078,-4.9652,-5.0022,0.8755,-11.8329,-5.3410,-10.8515,4.3450,3.7577,-0.3131,1.5453,-12.3431,0.0
1741737602.472000,618,1.4902,-9.6641,-7.7504,-2.3796,-1.1150,-0.9252,-4.6744,4.0054,-16.2550,-10.2029,-8.9063,3.5409,5.7634,-0.9224,-0.5972,-13.3078,0.0
1741737602.476000,619,1.3273,-8.0776,-8.5249,-2.7237,-2.8300,0.5778,-2.4526,5.4032,-15.7229,-9.5405,-8.9127,5.0467,6.4675,1.4060,-3.7843,-14.5485,0.0
1741737602.480000,620,2.0879,-8.3630,-9.8840,-0.7145,-2.7393,-3.8974,-3.8762,3.9933,-16.3360,-12.3381,-6.9237,7.2090,7.6468,1.3333,-5.5629,-17.7342,0.0
1741737602.484000,621,5.5661,-5.5688,-5.6233,-3.1283,0.0598,-4.5403,-4.1372,3.1752,-18.7885,-14.7984,-6.5561,6.4294,4.9300,-0.9289,-5.2354,-21.0477,0.0
1741737602.488000,622,2.7790,-5.7788,-3.8689,-2.5675,3.7994,-2.9687,-5.0071,1.7317,-19.4350,-16.0722,-4.6359,7.5296,8.1252,1.7242,-7.1083,-21.2087,0.0
1741737602.492000,623,4.1859,-8.2019,-3.8660,-3.0338,6.4236,-1.3323,-5.2939,3.5959,-17.1422,-17.5826,-2.3033,4.2695,8.7148,3.1058,-7.3639,-18.6673,0.0
1741737602.496000,624,1.3099,-7.9577,-7.2760,-3.0864,4.7183,-3.2409,-5.0424,1.6742,-7.0018,-12.3491,-0.4525,2.9336,7.3292,4.0919,-4.7294,-9.9732,0.0
1741737602.500000,625,-0.8765,-8.6543,-6.1948,-3.5790,4.3579,-3.0926,-4.9589,3.3718,1.3890,-4.3704,0.3987,2.7215,6.8098,4.9666,-0.2042,3.7460,0.0
1741737602.504000,626,-2.7385,-7.3453,-6.6412,-2.8423,6.6044,-3.9983,-3.1103,4.0456,10.9240,6.5953,-3.0478,0.8933,6.8674,2.6908,1.5526,16.6516,0.0
1741737602.508000,627,-3.5016,-4.3356,-5.0811,-3.6649,6.9239,-6.7791,-1.2983,3.4534,17.9427,11.4983,-2.9410,3.7077,7.4366,1.7680,3.0708,26.7680,0.0
1741737602.512000,628,-1.9751,-2.5710,-3.2429,-2.1595,3.7668,-2.9365,1.9474,5.8917,18.1360,15.5069,-1.9473,5.0248,3.7647,-0.0299,4.3447,28.2796,0.0
1741737602.516000,629,-0.2831,-2.5522,-1.1400,-0.9824,1.0572,-3.0574,0.5843,4.8746,16.1890,14.0086,-2.3915,2.9110,2.4047,0.2529,1.1052,24.1919,0.0
1741737602.520000,630,1.1602,-3.4947,-0.4243,-0.3392,0.5814,-3.6978,-0.3473,2.1262,14.1325,10.0569,-2.4396,-0.3714,-2.0498,2.4225,0.3140,19.4076,0.0
1741737602.524000,631,3.1964,-5.8339,-1.0294,-0.3841,0.8882,-3.2884,-0.8407,-0.3080,14.6378,7.3194,-0.2721,-0.3455,-2.2811,-2.0176,-0.1884,17.4444,0.0
1741737602.528000,632,2.9565,-3.3827,0.1991,0.1393,-2.8996,-2.0289,-1.6484,0.0222,10.1795,6.2013,-1.6421,-2.0020,-1.9986,-2.7356,0.2620,13.1395,0.0
1741737602.532000,633,0.0813,-4.6991,1.4072,-2.5872,-2.9262,-0.4085,-0.6824,2.2546,8.8705,4.5646,0.5236,-1.9284,-4.2444,-1.2311,0.2778,11.3770,0.0
1741737602.536000,634,-0.8932,-2.1356,-1.0381,-3.7380,-3.9964,-0.7337,-5.4137,-0.2348,5.6302,1.0741,-2.2638,0.5234,-4.0668,0.8269,1.2270,9.0440,0.0
1741737602.540000,635,-1.8917,-3.8394,-3.3905,-5.7038,-5.7792,1.2767,-6.7376,-0.1097,1.0479,-1.4593,-2.1947,-1.0162,-4.4177,-0.6620,1.9531,4.1524,0.0
1741737602.544000,636,-1.2430,-3.0041,-4.7270,-5.8590,-5.4458,0.6643,-9.9180,-3.6828,-3.6599,-7.4154,-4.0023,2.3786,-2.0822,-0.7745,-2.7561,0.2060,0.0
1741737602.548000,637,-1.1317,-1.3671,-3.9937,-5.9556,-5.1596,-5.2080,-9.4886,-7.4800,-7.8936,-8.6407,-8.1140,1.9432,-0.2136,-3.7527,-1.0633,-4.9881,0.0
1741737602.552000,638,-0.0549,-1.6931,-2.4008,-6.1372,-2.8344,-6.5161,-9.5998,-7.6280,-13.9015,-11.8892,-7.4405,1.6418,0.7904,-0.7444,-3.0041,-6.3879,0.0
1741737602.556000,639,-2.0283,-2.3832,-4.0959,-6.9340,-1.9099,-7.7460,-8.6191,-8.2560,-13.0793,-12.5789,-8.6327,1.7731,-1.2113,-0.9853,-3.8412,-11.3892,0.0
1741737602.560000,640,-0.0023,-2.7521,-1.0682,-6.1194,-4.1157,-9.4492,-7.1379,-11.4089,-13.8720,-15.0794,-7.0869,-3.0697,-1.1412,0.2127,-6.7344,-16.1311,0.0
1741737602.564000,641,2.2971,-5.2774,-2.4717,-4.5614,-1.1251,-9.5562,-7.3419,-14.2331,-16.5440,-19.9563,-5.9161,-1.6472,-2.4668,1.5493,-7.0254,-18.5366,0.0
1741737602.568000,642,1.5079,-5.3015,-2.7020,-4.4825,-1.3339,-9.4340,-8.5973,-16.9114,-20.0541,-23.9242,-5.9594,-3.5751,-4.6406,0.6338,-7.0352,-20.1102,0.0
1741737602.572000,643,-0.0419,-5.9511,-0.3871,-3.5938,-0.8112,-6.2693,-9.1036,-11.9509,-20.7916,-23.3860,-4.1360,-4.1009,-4.2296,1.1390,-7.6998,-26.1981,0.0
1741737602.576000,644,-1.8725,-4.0495,-4.9909,-9.9539,-3.6371,-0.1089,-6.8491,-10.7063,-18.6279,-21.9520,-0.0343,-4.2385,-6.9564,3.1870,-7.1373,-21.0916,0.0
1741737602.580000,645,-3.8035,-5.7043,-8.1683,-10.6012,-6.7974,1.1959,-6.7350,-5.0517,-11.4707,-14.0123,0.3681,-4.9402,-3.4400,0.9963,-4.1517,-11.9681,0.0
1741737602.584000,646,-4.0288,-4.7206,-8.1790,-8.5878,-7.9072,4.2017,-4.8904,-2.0989,-3.6418,-5.5284,-0.9672,-2.1964,-5.9218,-2.1868,0.6174,-2.2074,0.0
1741737602.588000,647,-4.2063,-2.5342,-5.7240,-10.4846,-6.7890,5.3395,-3.3790,0.4168,5.5033,4.4602,-3.3673,-3.0185,-6.4996,-3.8301,0.2374,7.0511,0.0
1741737602.592000,648,-3.9740,-2.0559,-2.6738,-6.3983,-6.0939,4.6974,-3.0826,0.5598,10.1039,10.2715,-6.0160,-3.4964,-6.7709,-2.9624,0.5438,13.4902,0.0
1741737602.596000,649,-1.5838,-0.5726,-3.9789,-7.5569,-3.1785,2.6776,-0.5982,-0.0601,9.6550,8.5008,-4.4656,-2.2855,-4.2169,-5.5788,-0.8065,14.1739,0.0
1741737602.600000,650,-1.4282,-2.6033,-0.6362,-5.7398,-4.5262,1.9870,1.7728,-1.4501,6.9646,5.8336,-3.7687,-5.8475,-2.1283,-2.5272,-2.9712,10.0212,0.0
1741737602.604000,651,-0.2517,-4.2898,1.5702,-3.8964,0.0960,0.4675,0.3338,-0.9733,5.6788,3.4296,-5.3942,-6.2682,-2.7479,-3.3226,-4.6134,6.8950,0.0
1741737602.608000,652,3.6286,-4.7275,3.0480,-2.3772,-0.4874,-0.7169,2.0610,-4.1105,3.9735,2.3527,-5.4147,-7.8231,0.8220,-3.1484,-5.5780,4.1574,0.0
1741737602.612000,653,-0.7425,-3.3174,5.0686,-2.3417,3.6753,-0.6876,3.0769,-3.0583,0.7906,0.8334,-5.5631,-8.5872,-0.1965,-3.6740,-8.0907,4.1236,0.0
1741737602.616000,654,-2.5858,-2.5927,4.3939,-2.0782,2.5143,-0.5833,3.3359,-3.9156,0.0187,2.4783,-3.9838,-6.3693,0.4824,-3.6448,-11.2243,2.4049,0.0
1741737602.620000,655,-3.9171,-2.3495,4.6002,-5.3499,-0.4769,0.9386,3.2889,-4.6570,-0.2802,0.8735,-1.5768,-6.5417,-0.9206,-4.8392,-14.2710,-0.1293,0.0
1741737602.624000,656,-5.6164,0.9616,1.6710,-6.4382,-4.6900,1.6871,4.8010,-4.5812,-1.5474,0.5739,-0.0722,-5.0289,-1.2205,-3.6613,-12.8922,0.4606,0.0
1741737602.628000,657,-7.6721,3.4572,1.6176,-9.0857,-6.8259,-0.7784,6.3336,-6.0002,-2.5114,1.7574,2.5869,-4.1188,-3.2309,-3.5676,-10.5072,-1.8504,0.0
1741737602.632000,658,-8.7662,6.9247,0.2785,-8.2852,-5.9218,-1.0362,3.9216,-7.7414,-4.0275,-2.3324,4.2982,-3.8079,-6.9324,-6.6362,-10.8983,-3.6016,0.0
1741737602.636000,659,-8.0620,7.3305,2.2272,-10.2703,-6.3203,-2.2089,4.1339,-8.7043,-5.8311,-2.4446,8.5489,-3.7139,-8.2460,-6.2213,-8.7301,-7.0622,0.0
1741737602.640000,660,-10.8867,5.7356,2.0043,-11.9763,-5.4115,-2.0410,1.4867,-10.5657,-5.8489,-7.8963,9.4814,-4.6917,-11.8575,-5.8492,-8.6350,-7.1455,0.0
1741737602.644000,661,-10.3245,5.1986,1.5935,-10.2785,-6.1832,-0.3096,-2.5944,-11.5969,-5.0668,-9.3998,8.6011,-6.6636,-10.6903,-2.6733,-6.7915,-10.3242,0.0
1741737602.648000,662,-10.2018,3.0678,-1.0040,-7.3498,-2.3985,-0.4281,-8.4505,-12.7366,-10.3801,-15.0456,6.4193,-5.4506,-8.9506,0.7843,-5.8608,-15.1026,0.0
1741737602.652000,663,-6.7641,1.4969,0.1551,-5.9472,-6.2329,-1.8792,-9.1733,-11.5490,-17.4564,-20.9353,3.4557,-6.6126,-8.0239,-1.8906,-5.1060,-21.4861,0.0
1741737602.656000,664,-6.5671,0.3463,2.6545,-6.9360,-4.1618,-1.3845,-9.0598,-11.3387,-21.5720,-21.8570,1.1931,-7.2054,-5.8556,2.3842,-5.7766,-22.2397,0.0
1741737602.660000,665,-4.1108,0.5408,4.9668,-5.0097,-4.1319,-0.4871,-7.4988,-9.4415,-20.6457,-18.7211,-0.2704,-9.0511,-5.1149,0.3089,-6.9272,-20.9564,0.0
1741737602.664000,666,-2.0438,-2.1960,4.7337,-2.8598,-4.3454,3.6562,-6.6339,-7.2295,-14.1044,-10.9987,-3.9551,-10.7426,-5.0426,-1.2438,-7.3886,-15.4665,0.0
1741737602.668000,667,3.2062,-1.4822,7.5864,1.5316,-6.9377,0.8730,-4.3772,-7.1351,-2.2996,-3.2283,-3.2958,-11.4003,-4.6230,-4.2794,-4.7415,-5.0594,0.0
1741737602.672000,668,4.1092,-2.4554,6.1567,5.6841,-4.7912,3.2605,0.5861,-2.9262,4.2295,5.6028,-3.3715,-10.0811,-5.2135,-3.9419,-3.0484,4.2209,0.0
1741737602.676000,669,4.1093,-0.4337,9.1755,3.3942,-4.7961,3.4414,3.5958,1.5805,7.0092,12.0291,-0.6349,-7.1804,-8.6393,-2.8023,-1.7587,8.0511,0.0
1741737602.680000,670,0.8974,0.6852,6.1100,1.4460,-4.6631,4.0844,9.6105,1.5780,7.8742,13.2747,4.8292,-6.1336,-9.0958,-7.4324,0.6765,9.9719,0.0
1741737602.684000,671,-2.1015,0.3535,2.0096,-0.9230,-2.9987,7.3576,3.9550,1.6471,7.8380,10.0408,5.1818,-6.2678,-9.1815,-7.7587,0.2847,6.5336,0.0
1741737602.688000,672,-2.9569,2.5852,-1.2445,-3.5977,-4.7997,7.6128,5.2710,3.2736,7.8379,7.8571,4.8726,0.3186,-4.6741,-10.2658,-0.7717,4.9944,0.0
1741737602.692000,673,-4.1356,6.5577,-2.0965,-2.4380,-3.2718,7.7998,3.6829,0.7662,3.6953,5.4379,5.2664,0.3007,-4.5606,-9.7184,0.4536,3.0975,0.0
1741737602.696000,674,-5.4072,7.6595,-2.0467,-6.4888,-2.6342,4.8148,4.9034,-0.1633,2.7883,5.1583,4.2082,0.0610,-1.9665,-12.4611,-3.2409,3.1794,0.0
1741737602.700000,675,-6.7831,9.5070,-1.2300,-7.8247,-3.2451,3.3101,2.9849,-0.9074,0.8562,7.7924,3.9740,0.1957,-2.3972,-7.4723,-2.4775,0.8209,0.0
1741737602.704000,676,-7.2471,9.4760,-1.8503,-5.3488,-4.1027,-0.0055,3.2952,-2.7884,1.2102,6.4341,2.6416,-2.8348,0.2574,-8.4792,-4.3551,-0.1671,0.0
1741737602.708000,677,-4.6176,5.6754,2.0632,-2.5331,-0.5873,0.2900,5.8474,-6.3521,-1.5428,4.4610,0.3301,-6.0626,1.9204,-8.5573,-6.6033,-4.3635,0.0
1741737602.712000,678,0.3777,3.7475,5.8914,0.8816,-0.6609,-2.6076,5.1368,-5.3424,-2.1537,3.3534,0.8105,-8.2596,-0.0430,-7.2470,-9.9043,-5.8374,0.0
1741737602.716000,679,0.3509,0.7951,7.4787,2.8712,-0.3010,-1.3803,5.9439,-6.6808,-3.1129,3.7675,3.4748,-9.3043,0.3884,-4.4895,-10.6420,-9.7686,0.0
1741737602.720000,680,-1.0908,-2.7551,8.3648,2.5647,-3.9552,-0.7272,6.3847,-8.0409,-2.3485,1.9478,4.6656,-14.0226,0.9950,-2.9413,-9.4726,-11.4733,0.0
1741737602.724000,681,-2.9003,-2.9430,5.2416,-0.5817,-5.5041,1.1180,5.9678,-5.0227,-3.8182,1.8099,5.8896,-14.3691,-1.5429,-3.2689,-11.0812,-10.8819,0.0
1741737602.728000,682,-4.2716,-3.9355,4.3497,-0.2503,-5.2069,3.7356,6.3860,-3.1089,-4.7298,-4.2925,6.0489,-9.9292,-1.8901,-5.9173,-8.3338,-11.1656,0.0
1741737602.732000,683,-6.0839,-0.7215,2.7329,-3.4845,-5.0592,5.9684,1.5147,-2.3849,-6.8511,-4.9403,6.7028,-7.1838,0.1979,-4.2210,-5.3213,-11.8391,0.0
1741737602.736000,684,-7.4391,3.3818,1.1107,-5.3979,-6.7386,8.5871,2.6856,-0.5055,-12.0124,-9.3426,7.2028,-3.0900,-0.9587,-5.9440,-5.1273,-13.0614,0.0
1741737602.740000,685,-8.8437,5.1044,2.5805,-6.9848,-7.3451,7.2316,0.1043,0.9077,-12.0992,-12.0263,4.6580,-2.7749,-0.2287,-8.3205,-4.4982,-12.6704,0.0
1741737602.744000,686,-8.5245,7.4933,1.0168,-5.0896,-5.0449,4.8028,-0.0143,0.2744,-10.3327,-7.1781,3.4504,-2.4626,-0.4993,-9.1050,-5.0814,-11.0800,0.0
1741737602.748000,687,-9.2851,8.2550,1.6729,-2.5904,-2.0804,3.0372,1.3637,0.8842,-6.6960,-4.5110,2.0880,1.7660,1.7529,-8.1125,-0.1944,-3.9037,0.0
1741737602.752000,688,-6.8928,5.9366,3.7717,-0.6848,2.2536,3.2918,2.9496,0.6503,4.9755,2.7786,4.3784,-2.0854,0.0157,-6.3099,1.9827,5.5498,0.0
1741737602.756000,689,-4.4450,4.8106,6.1063,-0.1677,3.1756,0.4126,5.2431,2.9278,5.8445,7.7460,4.8419,-0.2130,2.6543,-2.5074,7.3629,14.4646,0.0
1741737602.760000,690,-3.9823,1.4492,6.3132,0.4155,4.6582,1.5818,6.6687,2.1649,11.9005,10.6719,4.1088,0.8097,2.3751,-0.3286,6.2241,15.3602,0.0
1741737602.764000,691,-2.5455,1.8872,6.9777,0.7943,4.5129,2.3685,5.0605,3.7762,10.0118,13.1670,3.0474,-2.2936,2.4092,2.2398,6.2453,15.3939,0.0
1741737602.768000,692,-1.6014,0.7290,5.5520,2.2859,3.6746,4.7632,5.0451,3.5426,9.1551,11.4633,3.5176,-2.0838,4.2155,1.9053,6.0191,12.7778,0.0
1741737602.772000,693,-2.6200,2.3301,2.7654,2.8976,3.8396,6.9494,4.4012,3.3860,4.6037,10.2255,2.0594,1.2496,4.3980,3.0098,4.0800,9.0695,0.0
1741737602.776000,694,-1.8536,3.6071,3.7122,-1.3600,2.3952,3.5556,5.7132,7.7706,2.2154,9.6814,4.3039,2.0875,4.3023,1.6457,5.9622,6.8154,0.0
1741737602.780000,695,-2.6148,7.0731,3.2642,-0.8934,2.4119,5.3686,5.2148,6.5721,1.9130,9.7764,8.3850,6.7509,1.4855,1.6935,3.5490,6.3447,0.0
1741737602.784000,696,-4.0737,6.3893,4.9510,-2.2211,1.2959,3.1495,5.3898,1.7901,-0.2301,6.4605,9.0632,4.9174,-1.3249,1.5801,4.8826,5.1094,0.0
1741737602.788000,697,-1.0419,7.1794,2.8335,0.7148,5.0864,5.1807,3.1956,1.7182,1.6092,2.7104,6.8331,6.1773,1.2649,2.0859,4.2515,3.3192,0.0
1741737602.792000,698,0.8440,7.0020,2.5027,2.0509,3.7897,2.6041,-1.3150,0.3684,-1.0903,0.4414,7.9803,4.9150,0.0187,1.2121,3.8726,-0.6002,0.0
1741737602.796000,699,0.5241,6.2837,1.2210,1.3644,4.0729,2.1224,-2.5292,1.6859,-2.1826,-2.3521,7.7671,4.5678,0.4632,2.7045,4.9071,-3.2220,0.0
1741737602.800000,700,1.4606,3.0733,3.6031,1.6574,5.4212,3.0533,-4.3206,0.8594,-4.2725,-4.6598,6.6266,3.8539,0.1982,4.6304,3.1183,-3.9613,0.0
1741737602.804000,701,2.1980,3.3083,3.1066,2.2824,4.3492,3.4985,-1.5043,1.4444,-2.9511,-6.5106,3.9383,2.5143,3.6926,5.5044,2.0402,-3.4043,0.0
1741737602.808000,702,3.5092,2.1926,3.3739,2.7312,4.2305,4.4806,-5.1852,1.4566,-4.3242,-6.9547,1.9414,1.4162,3.8626,6.9399,1.5719,-5.7318,0.0
1741737602.812000,703,4.2634,2.1839,3.8302,6.1206,3.4535,6.0080,-6.2892,-1.7016,-7.3722,-7.9522,-0.8644,3.9445,3.6670,4.0182,-4.2362,-9.1303,0.0
1741737602.816000,704,6.3701,2.5906,6.1160,9.7353,3.9811,4.8347,-3.4447,-0.5085,-8.3319,-11.1628,-1.4063,0.6147,4.5574,2.6421,-3.9773,-11.9903,0.0
1741737602.820000,705,6.9072,2.4844,7.0432,7.7479,3.1413,4.1707,-1.2539,-0.9688,-11.7865,-13.3303,-1.1851,-0.0985,0.9965,2.5155,-6.3371,-15.2468,0.0
1741737602.824000,706,7.0164,1.7544,5.2950,6.2280,4.4860,2.5922,0.1635,-1.1389,-9.0916,-12.8033,1.8573,-0.5271,0.0407,4.1058,-7.1427,-14.9453,0.0
1741737602.828000,707,6.0227,3.1359,4.2539,8.4329,4.9564,1.6514,-2.2042,-1.4078,-3.9407,-9.6297,3.0157,2.1656,-2.1810,-0.1451,-5.5932,-9.7425,0.0
1741737602.832000,708,5.5636,3.3870,1.4818,3.7024,7.5925,0.8147,3.6438,0.9005,3.5451,-1.6898,4.7008,1.5052,-3.1067,0.5463,-0.9498,0.7235,0.0
1741737602.836000,709,2.8607,2.9005,0.5831,4.7110,8.7585,0.0529,2.9081,-0.0426,10.4313,8.4182,2.5293,4.0969,-1.8577,1.6207,3.4966,11.8659,0.0
1741737602.840000,710,1.4970,4.9157,-0.5300,2.2188,6.2158,0.5222,4.7539,1.4797,19.9217,15.9171,4.0922,2.5080,-1.2703,-0.1138,7.6103,19.5191,0.0
1741737602.844000,711,0.1777,4.2320,-4.6660,-1.2663,4.4579,-0.6134,4.0603,4.8465,20.3189,18.0338,2.5616,4.2168,-2.4269,0.6262,8.7598,21.5128,0.0
1741737602.848000,712,0.8902,5.8203,-3.3509,-2.1600,4.3039,-0.4844,6.7925,1.1792,18.6188,19.1242,1.5357,3.6186,1.2013,1.4580,7.1366,19.5410,0.0
1741737602.852000,713,3.4460,3.7994,-4.0604,0.3093,4.7146,-1.4297,5.6043,1.1570,12.3449,15.7575,-2.8853,3.7649,1.9772,-1.5301,5.5708,14.2775,0.0
1741737602.856000,714,2.4989,3.7066,1.1021,1.2420,4.8422,-0.8003,2.1980,-1.7154,8.5677,13.3818,-3.9942,2.2648,2.4032,2.3550,5.6728,10.5623,0.0
1741737602.860000,715,5.5085,1.4138,5.1381,1.4118,4.0011,-1.9429,3.7837,-1.9299,8.8934,11.4955,-3.6280,-0.4646,4.0044,3.4851,1.4470,6.2103,0.0
1741737602.864000,716,8.4483,-2.4722,5.8871,4.2494,3.3865,-2.3462,3.6929,-1.1681,6.3939,13.7408,-2.5868,-2.0672,1.0495,4.0281,0.1774,2.8250,0.0
1741737602.868000,717,9.9683,-4.2758,7.5309,5.4931,2.2795,-2.0247,4.5523,-3.1417,7.5597,9.5043,-1.1933,-4.8914,1.8279,3.7075,-0.6595,2.2856,0.0
1741737602.872000,718,8.2865,-4.9631,7.5467,5.5781,1.4262,-0.6224,3.5357,-2.0431,2.7469,7.8804,2.6675,-4.5321,1.7255,7.1892,-1.6751,0.4357,0.0
1741737602.876000,719,6.8332,-4.6834,5.4454,3.9949,3.6012,1.0860,3.2138,-2.0101,0.0402,4.0823,2.5689,-2.9319,5.5161,4.2086,-1.9070,-1.1040,0.0
1741737602.880000,720,3.8003,-2.2726,5.5328,1.3688,2.6301,3.1280,0.8526,0.1716,-3.4516,-1.4617,2.5168,-1.6150,3.5034,2.9188,-0.7577,-2.7901,0.0
1741737602.884000,721,3.7742,-0.3903,3.5970,-0.2842,0.4189,6.3765,1.4862,1.3328,-4.5923,-2.3845,3.3716,2.6529,6.1576,2.8022,-4.3909,-3.3100,0.0
1741737602.888000,722,2.5617,1.3637,1.1089,-0.0145,-0.3720,5.3516,1.4478,1.1994,-5.2223,-4.9841,-0.4880,5.6706,3.7938,-1.0784,-2.3223,-4.5814,0.0
1741737602.892000,723,4.1365,6.2999,3.7866,-1.6078,1.3382,4.3203,1.2010,1.0613,-8.2289,-7.1307,1.7635,7.1295,4.8825,-0.9968,-4.4738,-5.2500,0.0
1741737602.896000,724,3.9768,5.9216,4.7529,2.8615,4.1268,4.2114,2.1114,-0.9645,-10.6323,-8.8789,1.5979,4.8619,4.2323,-1.8315,-0.3394,-9.7287,0.0
1741737602.900000,725,4.4901,8.3324,5.8645,1.6421,8.1018,5.7238,1.1167,-0.2234,-12.3363,-14.7142,3.1946,6.4337,5.5067,1.1756,-2.4124,-11.4145,0.0
1741737602.904000,726,4.2530,5.5557,5.5017,3.6892,8.8350,3.1637,4.1607,0.1272,-14.5345,-13.6923,6.2525,6.5099,4.2502,2.3187,-5.7100,-16.7845,0.0
1741737602.908000,727,6.5307,5.3696,6.2025,3.3828,6.4383,1.1440,2.8230,0.3284,-11.8890,-14.1307,9.3142,6.2208,3.5514,6.1034,-3.4357,-15.3072,0.0
1741737602.912000,728,6.2339,3.9620,6.2102,5.1805,8.7341,4.8310,3.0427,0.9174,-6.7425,-8.5575,9.2962,3.0999,1.7054,5.4938,-2.0647,-9.5078,0.0
1741737602.916000,729,4.8809,4.4942,7.8375,4.9144,5.2427,4.9233,4.4839,2.0214,0.2281,-1.3144,9.1363,2.4547,3.0660,6.6856,0.9392,-1.1725,0.0
1741737602.920000,730,4.0476,3.6016,8.9172,2.4135,5.0145,7.0585,6.0629,5.1113,9.8604,8.4769,7.8942,4.8167,3.2681,6.0294,5.6060,11.1109,0.0
1741737602.924000,731,3.4575,2.4338,5.8654,-0.6639,3.0782,8.3425,8.7401,6.5305,13.9984,15.3027,7.5189,3.2092,3.4931,4.1224,7.8418,19.7187,0.0
1741737602.928000,732,2.5909,5.2336,5.8386,1.4333,1.9881,5.2712,6.9920,7.3660,17.0742,17.7824,8.8526,7.5987,3.4804,4.7124,7.4596,20.9815,0.0
1741737602.932000,733,3.8076,7.2667,6.3292,4.2098,1.9609,7.9672,5.6892,4.3824,16.4118,16.0150,9.2075,7.9980,3.4204,-0.4654,6.0196,21.3222,0.0
1741737602.936000,734,6.1474,8.9528,8.4501,3.2477,3.2194,4.4286,8.9939,3.0253,11.9712,16.4305,7.5591,3.5647,2.3563,-1.8022,3.2267,15.2364,0.0
1741737602.940000,735,5.5658,8.4687,9.7821,6.8323,2.2017,5.8289,6.4121,1.2520,9.0956,13.3772,7.4712,2.5647,1.1800,-1.2983,2.9513,12.4629,0.0
1741737602.944000,736,4.6524,8.9130,8.1296,3.0933,2.7011,6.9210,5.2188,2.4830,7.6776,10.9799,5.7050,2.7717,1.9926,-0.0525,4.8626,11.4920,0.0
1741737602.948000,737,3.2409,5.9848,8.5133,3.1136,-0.1050,6.5027,4.0291,3.4162,7.6864,7.6346,7.3626,1.1291,2.5599,-1.0137,2.8580,10.2534,0.0
1741737602.952000,738,4.5861,7.9678,7.8319,3.2851,1.3580,6.0748,4.6927,4.3661,7.4039,7.0794,9.6624,4.0267,3.8030,0.3638,4.0387,8.9760,0.0
1741737602.956000,739,3.4785,8.0262,8.7054,5.3285,2.3550,7.5154,5.7890,5.3055,4.2594,6.0873,7.1562,3.0270,3.5095,0.9010,4.1262,8.9306,0.0
1741737602.960000,740,3.0119,9.6609,6.5462,3.1739,1.9396,10.0253,4.6965,4.1396,0.9191,3.8542,5.0900,3.8678,5.9020,-0.9367,0.3680,3.7351,0.0
1741737602.964000,741,1.7091,9.8426,6.4830,1.6243,-1.3491,10.0987,3.9714,4.3043,-2.4695,1.6455,4.8249,3.5465,3.3151,-1.2420,-0.4106,-0.0396,0.0
1741737602.968000,742,0.6916,8.0561,7.5945,2.4599,0.2086,7.6865,5.1838,2.8713,-0.7962,-0.7033,4.8762,5.3006,2.3844,-1.8493,-0.6390,-0.9083,0.0
1741737602.972000,743,1.3221,6.0251,1.2625,3.5300,-0.4635,4.4130,3.2104,3.2902,-4.0495,-0.4754,5.7710,3.7745,2.9885,-1.1929,-1.4034,-4.3634,0.0
1741737602.976000,744,1.9689,9.9974,5.4309,0.8124,-0.0435,1.0781,5.2900,-0.8719,-5.6245,-4.3385,7.3120,3.7602,-0.0630,-1.9878,-1.9581,-6.5237,0.0
1741737602.980000,745,2.8009,8.8340,4.8367,2.1885,4.0397,0.4954,5.7331,-4.4893,-7.7306,-3.9691,8.2184,2.6301,1.6869,-0.5562,-2.4745,-9.8503,0.0
1741737602.984000,746,3.5334,6.8237,6.0152,0.1586,5.2589,-1.0504,0.2687,-5.2988,-11.0837,-7.9107,9.0322,2.4693,0.1138,-1.3488,-0.8585,-15.1082,0.0
1741737602.988000,747,0.8739,5.9147,4.0416,-1.8154,4.7205,-2.0675,1.0728,-4.5917,-11.5944,-9.7675,8.4598,1.8896,-0.5025,0.9129,-1.1776,-18.4489,0.0
1741737602.992000,748,1.1373,3.0823,3.1833,-0.8506,3.4117,0.3868,-0.1654,-3.3916,-12.4079,-9.7166,8.5550,2.0380,3.1201,1.9291,-1.0897,-16.4592,0.0
1741737602.996000,749,2.4952,3.4791,-0.2419,-0.8773,1.4903,-0.6482,0.6619,-0.9741,-8.1063,-4.3600,6.2496,3.0751,2.2091,1.5631,0.6961,-10.3790,0.0
1741737603.000000,750,0.5293,3.1913,1.9947,0.3964,-0.0004,1.5311,3.2272,3.4721,1.3361,3.2951,7.1554,1.9984,2.8049,3.7805,2.7879,-1.0669,0.0
1741737603.004000,751,1.1749,3.9178,3.8595,1.9895,-0.5396,3.8533,2.4526,4.2637,6.0089,12.4170,1.9559,3.8392,4.1721,3.3869,6.5475,10.0682,0.0
1741737603.008000,752,3.6611,3.6515,4.2562,3.6327,1.1110,6.5242,4.0381,7.3194,12.6253,19.1428,0.5460,5.3699,5.0815,4.7725,7.1256,17.0963,0.0
1741737603.012000,753,6.0882,2.3338,3.8487,6.5189,2.1487,3.7272,2.8277,8.9362,14.0285,19.9652,1.4750,3.9112,2.9051,1.9638,7.4492,19.9797,0.0
1741737603.016000,754,6.8036,0.9746,2.6195,4.8256,1.2234,3.1976,3.9974,7.8200,13.1615,16.2104,2.1623,2.5523,3.9757,7.1159,7.3116,16.4572,0.0
1741737603.020000,755,8.6175,-0.5897,3.7775,8.1178,4.0269,5.5237,4.9565,7.4420,9.8125,10.6456,5.4604,1.1666,3.4954,7.9122,3.7103,12.8158,0.0
1741737603.024000,756,4.2528,-0.4110,0.2821,6.3304,4.9664,2.4260,2.0495,9.1581,7.9969,6.3798,5.2972,2.2097,5.0373,6.6586,4.3736,10.3155,0.0
1741737603.028000,757,2.7228,-0.8884,0.5584,5.2695,8.8308,3.4040,3.2721,8.7121,8.8900,4.5375,3.1066,4.8323,4.5983,5.2229,3.8999,10.0378,0.0
1741737603.032000,758,3.4460,0.3531,-1.9678,5.0692,6.7128,5.4119,2.3858,10.1106,6.4435,5.7029,5.6621,6.8336,7.0969,3.9554,5.4598,9.1772,0.0
1741737603.036000,759,3.4075,0.8044,-2.1512,4.4924,10.0394,4.5848,2.8945,11.5507,5.3092,6.0567,4.7529,10.6542,5.9899,3.9119,3.5935,10.5021,0.0
1741737603.040000,760,2.1353,1.3538,-2.0372,4.3358,8.8604,4.0561,1.0975,8.3329,2.8861,4.7821,3.3332,9.6434,7.6980,3.1710,0.9013,7.2479,0.0
1741737603.044000,761,4.4296,3.5757,-2.2079,5.7461,10.0499,3.4856,2.5829,6.3668,3.5239,2.9879,1.2903,8.6744,6.3487,1.7770,-1.3146,3.7228,0.0
1741737603.048000,762,2.2870,6.6624,1.2944,8.9379,8.0490,0.6266,4.7366,6.1822,0.9069,2.0431,3.2161,7.7729,5.5580,0.1113,-0.3328,1.2574,0.0
1741737603.052000,763,4.0910,6.1529,0.2247,8.4486,9.5130,1.0458,3.7857,7.2631,-1.9862,1.0311,4.4158,7.5017,3.7471,0.6611,1.1702,-1.3036,0.0
1741737603.056000,764,6.0904,2.5216,0.4291,7.4518,7.7282,1.5316,3.7889,6.1818,-1.5603,0.5848,5.2237,6.0234,2.9664,3.2360,1.0566,-0.6516,0.0
1741737603.060000,765,6.1269,1.2039,-0.2420,8.3700,5.5830,0.2940,2.3509,4.4818,-1.3660,1.0491,7.4488,2.1331,0.9258,4.5244,-0.5994,-6.1532,0.0
1741737603.064000,766,7.0940,0.2153,-2.1163,7.0763,8.0139,-1.5475,-2.6917,0.9805,-2.9530,-3.2129,4.8213,0.6862,3.0081,5.8586,0.1795,-7.5525,0.0
1741737603.068000,767,5.8534,0.0805,-0.9054,5.2559,5.1321,-3.7642,-4.3345,-1.5752,-7.1130,-6.5057,2.1984,1.4709,1.7738,5.7715,0.8196,-12.1142,0.0
1741737603.072000,768,3.5755,-0.5470,-1.1153,2.2959,1.7015,-3.0225,-7.4697,-0.7965,-12.3536,-7.4243,0.5412,3.3370,3.1134,2.8321,1.9038,-12.2994,0.0
1741737603.076000,769,6.0762,0.3344,-2.0166,2.2457,3.1513,-4.7467,-5.3683,0.0486,-9.4087,-6.5208,-2.4354,4.8874,4.5727,6.9428,1.3371,-9.1056,0.0
1741737603.080000,770,6.4110,-0.1996,-3.8707,4.1074,0.9383,-7.0329,-7.7634,0.4518,-4.5689,0.6191,-3.3921,5.4873,4.3729,7.4126,2.0838,-3.3917,0.0
1741737603.084000,771,5.3708,-1.2133,-2.6720,5.2918,0.6412,-7.0706,-7.3698,-3.1204,3.8697,5.6745,-7.4078,3.9544,3.0722,6.6615,1.6566,3.2443,0.0
1741737603.088000,772,8.5861,-3.5056,-2.1324,7.5535,1.9992,-9.0388,-6.4839,-3.2022,12.6861,9.1532,-7.9867,5.1473,3.6333,6.4318,5.0715,13.0718,0.0
1741737603.092000,773,9.5462,-4.1469,-4.7983,6.7988,2.5010,-7.2290,-4.3883,-1.3496,16.5494,15.3164,-7.0611,5.2256,5.5668,7.3176,7.6013,19.3412,0.0
1741737603.096000,774,9.0304,-6.4712,-7.0528,5.6528,3.1050,-8.0235,-4.2319,2.4579,18.0079,13.7620,-4.3777,1.3484,4.3860,9.9409,8.3350,22.5319,0.0
1741737603.100000,775,8.3365,-8.9991,-7.4596,4.9439,2.7457,-4.0582,-5.8900,4.5488,17.4975,11.3005,-2.8650,5.0494,3.1242,13.7039,10.5134,18.3855,0.0
1741737603.104000,776,8.0034,-9.4969,-10.9148,5.5239,3.3284,-2.5348,-4.3808,6.6693,15.0186,7.4985,-5.1228,5.0069,-0.0150,13.1292,9.2638,13.9454,0.0
1741737603.108000,777,5.6769,-9.7110,-11.6618,2.8004,3.8758,-0.7645,-8.6695,7.3476,11.7121,2.3036,-3.8290,4.0739,1.4664,11.7975,9.1868,12.7112,0.0
1741737603.112000,778,5.9219,-9.7515,-14.2126,1.4326,4.3141,-0.4948,-8.2867,6.2399,9.7107,2.5722,-7.2257,6.6975,3.5435,7.1725,10.8395,10.9272,0.0
1741737603.116000,779,5.6661,-6.3673,-12.7536,-0.0797,6.9694,1.1557,-7.0123,10.4348,8.1034,1.6075,-4.5712,8.6278,3.2376,8.1766,12.1573,9.3888,0.0
1741737603.120000,780,4.5736,-6.2084,-14.5148,1.3876,5.8391,0.5942,-3.4691,8.8848,6.0569,-1.9919,-4.6039,11.0653,4.2192,9.3613,7.9811,4.9810,0.0
1741737603.124000,781,8.4076,-6.1894,-13.4200,4.0798,8.2774,-0.7615,-4.3748,5.5725,3.2982,-4.0799,-6.1917,6.3336,1.6730,8.4170,2.8230,0.6324,0.0
1741737603.128000,782,8.2048,-7.7542,-10.5631,6.4805,13.1037,-3.6042,-5.6256,5.4107,-1.5381,-5.8798,-7.5606,7.6536,4.2377,5.2293,-0.8425,-2.9137,0.0
1741737603.132000,783,11.7245,-7.8303,-6.0762,8.8534,15.9088,-6.7044,-3.2751,4.5552,-2.6391,-7.3220,-8.5028,4.0706,6.7543,4.3755,-3.4730,-7.3952,0.0
1741737603.136000,784,12.6913,-8.2011,-5.0914,8.3849,15.3191,-6.3642,-0.8492,3.9040,-1.9479,-5.6149,-10.2451,4.7572,7.4748,5.8086,-1.5985,-7.4880,0.0
1741737603.140000,785,11.6163,-8.6144,-2.9072,10.5671,12.7668,-7.1818,-0.1088,3.5000,-4.2339,-2.8286,-7.5681,3.9156,10.1656,4.7883,-3.5594,-9.3364,0.0
1741737603.144000,786,11.1779,-12.2268,-4.6525,9.6373,8.9992,-4.7268,0.2368,3.1314,-6.2703,-5.1944,-6.2973,2.0355,7.5328,4.5573,-7.4744,-8.2023,0.0
1741737603.148000,787,10.4651,-8.2307,-3.6488,7.0898,5.7466,-5.6820,0.4785,2.3459,-7.4157,-4.0341,-8.4341,1.9880,7.1473,3.6775,-10.1506,-11.2173,0.0
1741737603.152000,788,8.3941,-5.1412,-2.8378,5.4192,4.1134,-5.0701,-3.2100,0.7523,-10.2734,-4.9557,-7.2712,5.6421,7.1200,0.0946,-10.7790,-12.3594,0.0
1741737603.156000,789,6.2531,-3.6376,-2.0844,3.0045,-0.2656,-4.8444,-4.3680,1.3911,-13.1914,-4.8296,-6.2002,6.9322,8.4917,-3.2232,-11.9745,-11.0978,0.0
1741737603.160000,790,4.9946,-1.4070,-2.9025,-1.7617,-2.6511,-5.0181,-3.4015,-0.5648,-6.7411,-4.8014,-4.5912,5.9915,6.9634,0.7343,-11.3945,-5.3784,0.0
1741737603.164000,791,5.0922,-1.6068,-3.3111,-1.5565,-5.6266,-7.1511,-3.6551,-3.3487,0.6774,2.7166,-2.1331,5.1588,4.7456,0.1026,-7.9215,1.5825,0.0
1741737603.168000,792,4.5377,-1.7836,-3.0344,-1.1224,-4.8731,-10.2609,-5.6215,-3.5543,10.8190,9.1005,-1.7814,3.2093,2.8792,1.5422,-3.4942,13.8569,0.0
1741737603.172000,793,0.7699,0.6453,-3.4527,-2.0611,-3.5689,-11.3920,-8.8618,-6.0324,17.4206,12.8061,-3.7559,3.5808,2.2792,2.7511,2.5059,21.1034,0.0
1741737603.176000,794,-0.3157,-1.7925,-5.0859,-5.2984,-1.2085,-10.8463,-7.2149,-6.5502,21.4836,11.9954,-4.5238,4.7706,3.2689,3.5040,6.7613,27.1565,0.0
1741737603.180000,795,-0.2845,-3.1989,-5.7654,-7.3131,-1.1176,-10.3550,-8.3833,-6.0099,20.6968,10.7664,-2.6850,2.4335,1.0084,7.5846,7.5924,27.5511,0.0
1741737603.184000,796,0.3472,-7.4991,-7.2589,-6.0946,-3.4829,-9.4019,-10.9999,-6.5373,16.6044,6.4622,-6.6610,0.0490,1.2739,9.1829,7.8106,21.6801,0.0
1741737603.188000,797,1.9183,-10.4816,-10.5656,-5.4881,-1.8485,-7.1104,-14.1493,-6.4539,11.8062,-0.0042,-5.7867,-0.3870,-0.6061,9.9459,6.8730,16.1006,0.0
1741737603.192000,798,5.1547,-6.5447,-9.1482,-2.7900,-2.6684,-5.2783,-13.6461,-2.6499,8.8930,-2.9257,-7.5035,-0.0359,-0.1131,7.1586,6.6844,12.2952,0.0
1741737603.196000,799,1.4733,-7.4953,-7.3200,-3.4391,-2.9116,-2.7148,-11.4700,-1.9146,2.7108,-4.2246,-8.4148,2.6761,-2.1971,5.4738,5.3459,8.7113,0.0
1741737603.200000,800,1.7413,-9.7304,-6.1200,-1.5109,-3.6922,-1.0414,-6.9653,1.0391,2.0085,-5.5953,-6.9854,1.8744,-2.0873,6.7919,6.2943,4.1121,0.0
1741737603.204000,801,4.9616,-11.4867,-5.3131,-0.5225,-2.8674,3.3791,-7.5374,1.6637,0.8691,-9.4261,-4.2746,3.5176,-7.9385,3.3354,3.7397,4.0330,0.0
1741737603.208000,802,4.4321,-11.5394,-7.6278,0.5083,-2.3812,4.4818,-6.2501,3.3138,-3.2934,-12.0992,-4.3300,1.4826,-8.0726,1.9285,2.6632,-4.1247,0.0
1741737603.212000,803,5.2142,-10.1443,-8.4379,1.0504,-2.5109,5.2963,-7.9336,2.2320,-8.3155,-11.8635,-4.3092,3.2101,-4.0544,-2.0813,0.3214,-8.6437,0.0
1741737603.216000,804,5.2491,-8.4694,-5.5654,0.8092,-1.5043,3.3629,-5.3545,3.6505,-11.3625,-13.5844,-8.0107,4.5507,-2.8520,-3.4317,-0.3533,-12.1445,0.0
1741737603.220000,805,1.9526,-4.1182,-3.5797,-3.2783,-0.4117,5.0708,-5.1126,5.1242,-16.4249,-14.5021,-5.9465,2.8580,0.2982,-3.2785,-4.0241,-13.4543,0.0
1741737603.224000,806,-0.3188,-5.8117,-5.8438,-4.6844,-0.2369,5.2768,-5.9645,6.7159,-16.9548,-13.5348,-7.1396,6.7126,1.3231,-5.1288,-5.0952,-13.7697,0.0
1741737603.228000,807,0.7861,-3.2058,-3.3202,-4.2986,-0.1443,4.5401,-2.3776,1.4783,-18.2619,-13.3198,-9.5651,6.2230,5.0650,-8.1423,-9.5443,-18.9537,0.0
1741737603.232000,808,4.8334,-0.9554,-0.4336,-3.9539,0.6677,1.4587,-1.5553,-2.6309,-20.3986,-11.8323,-10.4023,3.4674,6.8279,-10.6147,-14.9962,-17.2159,0.0
1741737603.236000,809,7.6022,3.0381,4.1454,-0.2935,-1.8901,-2.9022,-1.8172,-7.2216,-20.8383,-11.0509,-9.9498,1.6661,4.9614,-11.3952,-17.0013,-21.5971,0.0
1741737603.240000,810,3.9253,2.3307,6.4715,-5.1372,-4.5198,-5.7639,0.9688,-6.1549,-18.7536,-9.8357,-8.5397,-0.1073,4.9743,-8.3797,-20.3577,-20.1311,0.0
1741737603.244000,811,-0.9856,0.0744,8.5619,-5.7275,-5.1002,-7.2504,4.3074,-9.0343,-14.9427,-6.7255,-0.4757,-1.7070,4.2213,-8.0747,-21.1138,-14.8566,0.0
1741737603.248000,812,-0.9619,-0.1232,7.2014,-6.8551,-7.8891,-6.6272,4.1841,-11.2816,-4.6674,-0.3865,2.5024,-4.3357,2.3517,-4.2369,-16.9271,-3.2432,0.0
