timestamp,package_num,Fp1,Fp2,F3,F4,C3,C4,P3,P4,O1,O2,F7,F8,T3,T4,Pz,Oz,marker
1741737600.000000,0,-11.3909,-1.7007,-8.5589,10.0712,-0.2100,-2.7887,10.5910,7.0933,-1.3165,-1.7248,-3.9624,-13.1786,6.9595,-0.9864,-5.7920,-7.2020,0.0
1741737600.004000,1,-6.3537,-6.1257,-8.2308,6.0604,-1.7023,3.7676,9.8028,9.5796,-5.0343,-4.4684,-3.8967,-13.9020,5.4033,-5.7585,-7.7035,-5.0337,0.0
1741737600.008000,2,-2.2952,-9.4358,-10.5912,-3.5009,-0.7759,4.9267,8.3757,9.5954,-4.3235,-8.3375,-1.3692,-14.0034,8.3416,-1.0085,-5.9054,-5.8094,0.0
1741737600.012000,3,-0.5218,-10.9571,-6.7794,-10.0544,-3.1589,6.8417,5.7435,6.3942,-2.2070,-6.9664,-4.0984,-8.2736,7.2687,-1.2685,-6.4753,-6.1368,0.0
1741737600.016000,4,-2.3072,-14.4359,-7.2927,-7.6303,-3.8631,3.2782,5.2484,4.7922,-4.8291,-6.2239,-3.6815,-7.2371,4.6681,-2.0942,-6.8350,-6.6858,0.0
1741737600.020000,5,4.1113,-13.5584,-5.8541,-11.2118,-4.6947,2.4624,4.2844,-2.5614,-6.8754,-1.6881,-1.5081,-7.2496,6.0126,-4.3176,-8.7419,-7.7524,0.0
1741737600.024000,6,7.5269,-10.5295,-6.6269,-8.9956,-3.5597,1.1718,4.1833,-6.4771,-5.1143,-5.5716,2.4595,-3.9982,6.3335,-5.8175,-6.7516,-6.8314,0.0
1741737600.028000,7,5.4531,-8.1929,-4.1463,-8.5491,0.1139,-0.4560,2.2356,-10.3156,-4.9939,-4.9032,2.8347,-3.0205,0.7797,-5.5958,-4.9917,-7.7058,0.0
1741737600.032000,8,2.8102,-2.6560,-1.5516,-7.8249,0.1253,1.6824,1.4241,-11.2291,-5.7963,-5.3828,6.3518,-0.3108,-1.0674,-8.8023,-1.2452,-7.5533,0.0
1741737600.036000,9,-1.7112,-1.9911,-1.9394,-4.1133,1.3569,-0.8176,-3.3377,-11.3376,-8.2785,-4.5306,2.2382,-0.8673,-2.3964,-6.7249,-0.9067,-11.7476,0.0
1741737600.040000,10,-4.2553,2.5415,-7.4329,-4.6522,-4.8514,-0.3198,-6.9790,-12.3406,-9.8407,-6.3264,-0.1911,-4.2053,-3.1551,-7.5714,3.8271,-12.4288,0.0
1741737600.044000,11,-6.2342,0.3982,-10.6357,-6.0684,-3.7602,0.3608,-15.8793,-11.3594,-9.0448,-6.9266,-2.7457,-3.9803,-1.7206,-8.4684,6.9066,-11.5433,0.0
1741737600.048000,12,-7.5670,-0.5737,-12.8018,-10.4632,-2.8960,-0.5828,-17.4920,-11.4103,-6.9389,-9.0471,-0.7036,-6.5688,-3.6572,-9.8477,6.3814,-9.6006,0.0
1741737600.052000,13,-5.7094,0.6734,-13.0763,-11.2383,1.0477,-2.6279,-15.9760,-10.3777,-12.1524,-9.0232,-1.4501,-4.4510,-6.7867,-13.0809,5.4534,-9.4633,0.0
1741737600.056000,14,-6.2116,0.9343,-10.9657,-13.6571,1.8321,-5.2518,-12.0505,-9.4268,-15.7728,-8.7189,-1.9715,-0.2982,-3.8115,-11.9191,5.6422,-11.0642,0.0
1741737600.060000,15,-3.5023,3.6468,-12.3792,-8.5867,6.2667,-12.3282,-10.0299,-12.0924,-11.9235,-7.1196,-3.6608,2.7054,-3.6639,-12.1691,5.5178,-10.7008,0.0
1741737600.064000,16,-3.1249,-0.4486,-9.8055,-8.2386,8.4972,-13.5795,-7.4484,-8.5624,-10.9606,-5.7793,-7.5805,3.7324,-2.4854,-10.2501,3.5385,-10.2469,0.0
1741737600.068000,17,-3.4215,2.8217,-6.5122,-5.7708,8.4152,-12.9301,-1.4757,-7.7349,-12.5376,-10.5635,-8.2440,0.9224,-0.2117,-9.9265,3.5629,-8.3880,0.0
1741737600.072000,18,-5.0400,4.6315,-4.8695,-7.7930,10.8497,-10.8838,3.1648,-2.6664,-8.9745,-13.3473,-12.5730,1.5019,2.9414,-5.5839,-0.4822,-6.5035,0.0
1741737600.076000,19,-6.1450,3.3678,-4.8248,-6.0635,2.0885,-9.9173,1.1419,-0.7362,-9.5387,-14.3301,-12.6369,1.0487,7.4289,-2.2781,-4.2710,-7.1693,0.0
1741737600.080000,20,-4.2447,0.1416,-3.9260,-6.6236,-0.2348,-10.5439,3.6675,3.1401,-4.6201,-12.4939,-13.1241,1.6977,10.0127,-1.1345,-8.1475,-6.6339,0.0
1741737600.084000,21,1.1225,-1.6575,-1.5805,-7.0709,-6.8497,-6.8077,3.9358,5.5686,2.5810,-11.2894,-7.1460,-1.4070,14.5991,-4.4704,-12.7990,-2.5659,0.0
1741737600.088000,22,3.8926,-4.5270,1.7532,-5.9915,-10.3020,-4.9041,3.3270,7.9240,6.1579,-9.7926,-5.7379,2.1165,14.9973,-3.6538,-11.2409,-0.9822,0.0
1741737600.092000,23,7.2375,-8.8888,5.4708,-4.9289,-12.9286,-5.8753,7.7021,11.0153,12.0565,-5.3891,-0.2371,4.8478,8.2401,-4.6591,-14.4571,5.2593,0.0
1741737600.096000,24,9.4400,-9.9350,9.2497,0.1429,-14.9116,-2.3418,4.5599,10.1703,16.1856,-2.5626,1.8309,3.6904,4.4664,-4.0860,-15.5626,7.3316,0.0
1741737600.100000,25,9.9957,-7.4483,9.3428,3.4638,-15.6770,-1.9758,3.5369,6.5240,17.3415,1.4570,1.6073,2.9529,1.6935,-2.9700,-12.1493,10.6400,0.0
1741737600.104000,26,10.5030,-8.2385,11.4704,9.9071,-15.5756,0.4872,2.6504,5.7383,20.5954,9.6472,-0.9684,3.2436,-3.3081,-1.1714,-10.9330,12.0617,0.0
1741737600.108000,27,11.2569,-7.0895,11.2146,8.4235,-14.4867,6.4885,-1.0605,2.9642,21.5639,12.0493,0.1954,0.2157,-2.7185,-0.5655,-7.9109,18.9173,0.0
1741737600.112000,28,7.5965,-7.7529,10.3188,6.9034,-11.7290,7.8584,-7.4062,2.9545,18.4570,13.6712,-0.8510,0.2056,-5.2032,1.8703,-4.8723,17.0214,0.0
1741737600.116000,29,6.2756,-10.6847,9.7900,3.6672,-8.0212,11.0518,-11.2375,-0.6986,14.2739,14.6164,1.2014,1.8947,-3.9055,3.4136,-4.3772,15.1835,0.0
1741737600.120000,30,7.2204,-9.9688,9.4495,3.0817,-8.7242,11.6935,-13.1505,-3.3323,11.7918,15.0486,1.6190,6.2560,-5.1435,4.7667,-4.7409,12.4873,0.0
1741737600.124000,31,4.4341,-5.6251,5.1600,0.7433,-7.8423,11.3996,-13.5043,-4.9293,8.2718,19.5191,4.2850,6.7716,-5.6246,4.9445,-4.8635,11.3359,0.0
1741737600.128000,32,7.3170,-1.6756,2.3835,-2.3280,-2.9391,8.2927,-10.4540,-7.8655,7.9139,17.6794,8.3008,7.4915,-4.9727,1.1838,-0.4021,10.3448,0.0
1741737600.132000,33,6.6577,3.6446,4.2358,-3.0536,1.1537,6.5019,-7.9492,-8.3052,4.7284,14.8300,10.8122,8.4230,-8.3936,-0.0584,4.0802,8.0846,0.0
1741737600.136000,34,7.3028,7.0891,0.9678,-1.8808,2.7680,0.8080,-5.9001,-7.7891,0.0701,15.0865,10.7839,9.9603,-8.6408,-2.7226,8.5888,4.2558,0.0
1741737600.140000,35,1.5465,11.7558,4.2421,-1.0648,4.5321,0.2154,-5.4179,-5.4215,-5.0664,12.9930,10.5122,4.3889,-7.0744,-2.0126,10.5274,-4.0536,0.0
1741737600.144000,36,-1.2151,14.8915,3.4992,-1.4454,7.2732,-4.2803,-3.2788,-3.4168,-6.8820,10.1302,9.3893,-1.6318,-4.5998,-1.4013,12.0432,-6.3169,0.0
1741737600.148000,37,-4.0167,15.0856,-0.0841,0.9639,9.5137,-0.7274,-2.1465,1.6152,-6.7580,5.7136,6.1875,-7.6678,-3.7398,-0.2313,14.0143,-9.1916,0.0
1741737600.152000,38,-10.0116,12.4618,-0.8132,-1.3920,11.0834,-1.3310,-0.1175,5.2918,-12.0989,0.5849,3.8786,-10.9336,-0.5253,-1.1067,14.3898,-11.9623,0.0
1741737600.156000,39,-8.9113,10.5971,-6.3005,-2.6850,7.5708,-1.3267,1.7980,10.2862,-15.4784,-5.2907,4.7794,-9.9419,3.2233,-1.8371,12.5490,-15.2549,0.0
1741737600.160000,40,-9.6454,4.7360,-8.9726,-2.8734,4.7876,-1.3407,1.7908,12.4023,-15.8785,-11.1166,4.8950,-7.1716,1.3002,-0.7438,9.3911,-15.3692,0.0
1741737600.164000,41,-9.9009,2.2999,-10.8761,-1.7963,1.7567,-0.4911,4.9072,13.7247,-9.7848,-11.3458,1.5072,-6.3592,0.0005,1.2580,6.0576,-15.1187,0.0
1741737600.168000,42,-8.2766,1.8159,-7.4344,2.0946,-0.9461,0.3616,6.6870,13.2375,-5.7057,-12.2160,1.4089,-5.4429,1.2762,-1.6808,4.0324,-13.2579,0.0
1741737600.172000,43,-3.4659,2.1213,-6.4306,2.8095,-1.8911,-1.4407,8.9069,11.7486,-3.6515,-12.3348,2.2009,-2.4132,0.6539,-0.1990,1.8941,-9.0443,0.0
1741737600.176000,44,-0.0793,1.0698,-0.7741,3.7663,-1.3588,1.5702,9.4262,12.3574,-1.4394,-11.7696,1.3335,-2.5013,-1.0377,0.1815,-0.5789,-2.7556,0.0
1741737600.180000,45,-0.2543,1.8588,-0.2409,5.5444,0.6752,1.3545,8.4304,10.7281,2.7983,-10.1094,-2.0381,0.4332,-2.5129,5.7561,-2.3666,0.7511,0.0
1741737600.184000,46,-4.1028,1.7964,2.6299,8.9783,-1.1822,4.4379,4.5014,9.5480,4.9621,-7.9867,-4.4103,0.9538,-1.5510,11.3320,-3.6008,2.2623,0.0
1741737600.188000,47,-2.4726,0.0477,1.7830,10.5805,-2.8357,6.3887,1.6109,6.7094,7.8656,-4.2720,-6.3569,0.5016,-2.9153,13.3636,-7.6516,6.1649,0.0
1741737600.192000,48,-3.0416,-1.7722,1.4594,8.2796,-5.6608,10.8428,-1.4557,8.4955,8.8903,-3.7887,-4.3313,1.9403,-0.0014,15.3197,-7.1428,6.5174,0.0
1741737600.196000,49,-2.1186,-5.3700,1.1744,4.4253,-6.3375,13.2329,-2.6460,4.8348,12.3023,-2.3464,0.6643,5.4231,-2.9734,12.3828,-8.2970,10.9502,0.0
1741737600.200000,50,0.8311,-4.8889,0.8021,2.2187,-6.9855,11.9979,-6.5690,2.3788,11.4403,2.3417,2.6492,6.4428,-6.1872,11.4998,-6.5583,13.2657,0.0
1741737600.204000,51,2.8832,-4.4593,2.6442,-0.0146,-8.2033,10.5023,-7.8807,-2.7943,14.3035,7.7462,5.3531,11.2074,-8.1892,8.6962,-4.6381,14.5534,0.0
1741737600.208000,52,5.9067,-2.3048,3.1911,-0.8195,-5.7604,5.0217,-9.0878,-7.2954,12.3585,8.0804,7.0320,11.2511,-11.1652,8.2191,-1.1768,12.0959,0.0
1741737600.212000,53,4.8221,-0.6597,4.1327,-1.3483,-1.3326,2.6091,-9.3817,-7.5632,11.1444,12.9859,8.1449,5.4067,-9.5236,2.7934,4.7107,13.2069,0.0
1741737600.216000,54,1.9272,0.4195,3.3826,-3.5738,1.8847,2.4514,-8.5658,-6.4466,4.8517,12.5151,6.0292,3.6823,-10.5748,-0.8958,8.0355,9.7856,0.0
1741737600.220000,55,-0.0509,1.9212,5.4331,-3.6788,5.1526,1.5107,-8.5027,-9.3945,0.9428,7.0297,5.4105,0.7538,-13.3189,-1.9834,9.7897,4.9688,0.0
1741737600.224000,56,-3.1186,-0.1055,2.5019,-5.7189,7.9447,-0.0711,-5.1214,-5.6114,-5.3226,6.4472,1.6055,-2.1084,-11.0987,2.0838,11.4741,1.5451,0.0
1741737600.228000,57,-5.5204,-1.3933,-1.9834,-6.1731,8.3511,-1.3215,-4.1212,-5.9780,-8.2351,3.6747,-2.4436,-5.2751,-6.1252,-1.6944,12.5593,-5.0767,0.0
1741737600.232000,58,-4.5817,-1.3057,-6.4573,-7.4981,4.3582,-4.7175,-4.7500,-6.6124,-11.4098,-2.4911,-4.0084,-6.3786,-3.4490,-5.5040,12.2877,-9.3460,0.0
1741737600.236000,59,-7.6841,-5.1515,-8.5230,-10.0468,4.6555,-6.2036,-0.7058,-5.9092,-12.0575,-4.6247,-3.7661,-8.2667,0.0990,-8.7742,9.3347,-11.3329,0.0
1741737600.240000,60,-5.8044,-7.8355,-7.8317,-10.3454,6.8941,-6.2549,0.7233,-3.0575,-12.4697,-7.8575,-3.0612,-5.9143,-0.7277,-10.4511,9.5325,-15.3544,0.0
1741737600.244000,61,-8.1903,-3.8928,-7.0829,-6.8767,5.7709,-8.9271,5.5906,-4.4480,-12.1834,-12.1590,-4.3052,-4.1832,2.2808,-9.0214,6.1421,-15.5118,0.0
1741737600.248000,62,-7.5335,-2.5618,-4.7384,-0.9724,6.9678,-9.4265,5.7482,-4.6024,-13.6651,-12.2090,-4.9341,-4.6335,0.6353,-9.8041,3.1812,-13.6368,0.0
1741737600.252000,63,-8.2118,-0.4565,-4.9526,1.0680,4.5529,-7.2674,9.5673,-0.3269,-9.2200,-14.6044,-9.0083,-11.0610,4.2359,-7.7507,3.1350,-12.5443,0.0
1741737600.256000,64,-8.8659,-0.2498,-5.0579,5.4778,4.0458,-5.6389,11.4960,4.1551,-5.4836,-14.8222,-10.7899,-12.0563,6.7367,-6.0867,1.5441,-8.0288,0.0
1741737600.260000,65,-8.4475,-1.6057,-6.0129,6.5821,0.7348,-5.2413,12.7834,7.6939,-3.3340,-15.2463,-12.8508,-13.3181,8.3162,-1.9530,0.1372,-8.5520,0.0
1741737600.264000,66,-8.3310,-4.8161,-2.6798,8.4775,-1.1187,-1.1794,6.4922,8.9035,-1.4243,-15.8643,-14.2419,-12.2518,8.0677,0.4156,-6.9532,-4.6540,0.0
1741737600.268000,67,-6.5649,-6.9244,-4.7329,9.4256,-3.3794,3.1916,7.8244,9.4493,1.7996,-11.3183,-14.9514,-10.1775,10.6027,3.7871,-8.7755,-5.0747,0.0
1741737600.272000,68,-2.3121,-8.9131,-3.6599,8.0548,-6.8842,4.9545,6.7823,6.0658,6.4228,-7.7368,-8.4645,-7.5799,10.5913,2.8915,-12.7418,1.0030,0.0
1741737600.276000,69,-2.1443,-10.6393,-3.3671,6.5988,-5.8746,6.7387,3.9421,4.0781,9.8422,-4.6978,-6.4213,-3.4491,11.9145,2.9567,-12.9710,4.4834,0.0
1741737600.280000,70,3.1834,-9.6053,-1.2371,4.8719,-6.8006,6.2717,3.4755,2.4382,10.3338,-2.8720,-2.4628,-1.0097,8.2901,7.2724,-12.4272,7.9480,0.0
1741737600.284000,71,4.0493,-5.4912,3.1587,1.9635,-5.6881,6.7852,3.2330,0.5879,11.0672,0.4334,0.9906,2.6635,5.3091,5.2511,-12.9422,8.5107,0.0
1741737600.288000,72,3.1809,-5.6291,4.7453,1.5036,-4.6738,7.4958,3.9525,-1.2734,11.3556,4.0959,-0.3358,-0.8269,2.2341,6.1052,-11.4968,9.0195,0.0
1741737600.292000,73,1.8689,-3.6317,1.9752,0.9784,-0.9834,2.9271,1.1197,-1.7596,9.5505,8.4836,2.2383,-1.2453,2.6212,7.4659,-6.4014,9.9679,0.0
1741737600.296000,74,3.0556,-5.0542,3.8937,-0.4898,1.0294,2.1187,0.9960,-0.3528,5.9693,11.7228,2.1296,-3.9257,2.7570,4.5105,-3.0859,7.1605,0.0
1741737600.300000,75,0.9055,-3.8557,1.4347,-2.5319,-0.1080,0.2647,1.2767,-1.9324,4.3828,11.2933,3.7979,-2.5629,1.6671,3.1619,-1.2945,4.7432,0.0
1741737600.304000,76,-2.3949,-3.8737,-0.6882,-4.1477,0.3903,-1.4484,-3.7895,-3.1092,0.1304,13.2950,4.5280,-4.1263,1.8752,1.9636,-0.8518,1.9755,0.0
1741737600.308000,77,-4.7612,-6.8163,-2.8812,-4.2413,1.5973,-1.3118,-3.9447,-3.5137,-3.7980,13.7676,1.9511,-0.9370,2.4448,-0.2024,1.4397,-4.2989,0.0
1741737600.312000,78,-5.9508,-8.3604,-7.5295,-6.6902,2.8218,-1.3618,-5.0858,-4.7614,-5.6855,11.9871,3.1786,-1.2558,2.3776,-3.2849,-1.7094,-5.6899,0.0
1741737600.316000,79,-5.2475,-6.9200,-8.6183,-6.7571,3.7036,0.8833,-6.7192,-4.2628,-8.8770,7.2145,4.6436,-0.7049,1.7098,-5.5703,0.6175,-6.1488,0.0
1741737600.320000,80,-6.0397,-4.1877,-9.6905,-8.2534,3.7947,-0.8203,-4.7018,-5.2631,-9.3834,1.8039,5.1156,-0.6901,-0.0325,-10.2200,2.0815,-7.9504,0.0
1741737600.324000,81,-2.2944,-0.6749,-10.6493,-9.7982,4.4909,-1.7945,-4.5827,-3.2524,-11.2038,0.4589,3.7181,-1.5564,-0.7995,-10.0758,3.0998,-8.7711,0.0
1741737600.328000,82,1.7144,-1.9528,-12.5381,-9.3521,4.9887,-6.4190,-4.3024,-5.2236,-12.5094,-2.5240,0.2385,-2.3885,-0.6345,-11.0070,3.1662,-11.5208,0.0
1741737600.332000,83,2.7140,-1.1873,-8.6126,-10.2513,5.1141,-4.0028,-4.7273,-6.4117,-10.7494,-4.1539,-3.9404,-6.7248,-2.4367,-7.7969,-1.4000,-12.2164,0.0
1741737600.336000,84,2.0945,-1.5016,-5.0969,-10.4602,5.2050,-4.1876,-3.2866,-2.0399,-10.7281,-6.3303,-4.3584,-8.7955,-0.9196,-6.2545,-0.2369,-11.0860,0.0
1741737600.340000,85,2.2441,-2.7145,-2.3275,-8.4650,5.5757,-3.9069,-2.5846,-0.1031,-7.0771,-8.5407,-4.5109,-6.4630,-0.8146,-4.4177,-4.5945,-10.9985,0.0
1741737600.344000,86,4.7521,-1.1284,1.4246,-7.7557,1.0357,-3.4003,-3.4776,0.3465,-5.6089,-10.0958,-3.6654,-1.2871,2.1459,-4.1012,-3.3987,-6.9652,0.0
1741737600.348000,87,7.2714,-0.5859,1.2033,-8.0328,-2.9680,-2.2102,-1.9461,0.3379,-2.2587,-9.1936,-1.2609,-0.7084,2.3009,-1.3143,-6.4539,-4.2489,0.0
1741737600.352000,88,5.3167,-1.3857,2.7728,-6.2397,-6.6979,-3.6506,-4.0317,-1.1382,3.7384,-6.5495,0.7607,2.7366,0.5970,0.1350,-5.3984,-3.0760,0.0
1741737600.356000,89,7.0289,0.0090,4.3637,-4.3595,-9.4195,-3.3961,-3.6057,-0.0046,8.4494,-1.8480,0.6317,3.3484,-0.5947,-1.8318,-5.8809,0.9521,0.0
1741737600.360000,90,6.4428,2.6517,3.2788,-2.2274,-8.7986,-2.3497,-4.0260,-1.2182,9.9916,-0.6278,2.2949,3.4125,-1.9323,-1.2347,-3.0931,3.9630,0.0
1741737600.364000,91,5.6057,2.4127,8.6051,-0.5680,-7.8686,-2.8565,-4.1607,-0.6421,11.9571,3.6567,5.0597,6.6668,-2.8012,-2.3058,-3.5140,7.9904,0.0
1741737600.368000,92,8.3969,5.5164,9.4190,1.5054,-6.8897,-2.7202,-2.4533,1.5182,16.9268,7.6852,6.3442,4.8536,-3.5165,-1.2332,-0.4092,13.6853,0.0
1741737600.372000,93,7.7939,6.0303,9.6118,3.6689,-7.1526,-3.0221,-2.8227,2.4178,15.6587,16.0670,9.7335,7.7620,-3.9013,-0.1079,-0.0159,13.9381,0.0
1741737600.376000,94,6.8387,5.1559,10.6054,7.5928,-5.4950,0.5017,-2.3541,2.8455,15.2155,16.8483,6.8014,8.0831,-4.4234,1.2563,-1.0266,15.2490,0.0
1741737600.380000,95,5.3927,5.7450,10.4244,6.8842,-3.3584,2.5131,-1.6791,3.4476,14.2316,19.9918,7.6663,10.2253,-3.9457,5.2797,1.5483,17.5344,0.0
1741737600.384000,96,2.9477,3.3717,8.2918,4.8615,-3.3521,4.2910,-0.5336,7.6099,11.7248,18.1154,7.7252,11.7004,-2.8888,5.0318,-1.5326,16.2301,0.0
1741737600.388000,97,7.3795,5.1696,8.2514,2.2966,-3.7111,8.8174,-2.2260,6.2369,10.2615,18.1917,10.8370,11.2026,0.7024,4.1079,0.2338,14.5771,0.0
1741737600.392000,98,9.6898,6.5627,7.1927,-1.3358,-3.7551,8.8862,0.2079,4.0939,8.1614,15.3993,13.8018,12.0607,1.2276,2.4055,3.0102,11.1352,0.0
1741737600.396000,99,13.0200,6.8262,7.8332,-6.4740,-2.7969,9.4834,1.4290,5.5241,5.5045,12.8924,14.6090,15.0243,3.8327,2.6122,2.7007,8.3805,0.0
1741737600.400000,100,12.8856,8.7099,7.3334,-8.0019,-3.5972,5.9553,4.2148,6.7587,7.3505,10.9348,17.4355,12.9900,1.7429,3.2538,2.0424,5.7920,0.0
1741737600.404000,101,14.4281,10.6819,9.4410,-8.5243,-1.8839,4.1290,2.6136,5.9396,4.2443,12.1460,18.0532,10.2501,1.6175,0.6732,2.0503,4.1667,0.0
1741737600.408000,102,16.8561,10.8265,10.4158,-7.6579,-0.5629,3.7814,5.0370,8.1910,5.5554,10.9968,19.8194,7.3991,-0.7610,1.3174,2.3798,2.8418,0.0
1741737600.412000,103,12.6533,11.4663,13.4395,0.1685,1.6871,5.2721,4.6540,11.0960,4.1784,10.2923,17.4231,4.6698,-1.9831,2.7554,7.8303,2.4629,0.0
1741737600.416000,104,10.2903,13.6797,14.7274,4.0141,-0.3432,3.6078,2.4502,8.9718,3.8085,6.7027,16.3816,3.8521,-3.3156,1.1393,7.3713,0.2033,0.0
1741737600.420000,105,8.7100,9.2675,10.5630,6.1480,-1.0199,7.8680,-1.5826,10.2011,1.5838,6.4778,11.8320,3.1864,-5.9700,2.2412,7.4335,0.6108,0.0
1741737600.424000,106,6.6484,8.1064,7.8483,7.9974,-3.0102,11.9308,-3.9669,10.4813,3.6680,4.2990,11.5638,4.7309,-5.2252,3.9246,8.4184,-1.9830,0.0
1741737600.428000,107,1.5254,4.3661,2.4982,6.2047,-2.4130,13.4092,-6.0583,8.1368,5.6505,2.8311,11.5436,3.3622,-5.1711,4.6272,8.3094,0.6260,0.0
1741737600.432000,108,1.8887,3.5950,2.1665,5.7809,-0.8359,11.9343,-8.3123,6.5913,5.3351,0.6347,10.0734,7.2188,-7.0421,3.8757,8.6796,2.7828,0.0
1741737600.436000,109,5.7020,6.0504,2.6391,5.3296,4.1903,16.1867,-7.4668,3.4065,6.2118,-1.3570,12.9718,7.8829,-8.9037,2.0348,8.7498,4.4292,0.0
1741737600.440000,110,8.0011,10.7853,3.4264,7.1562,4.8986,11.2612,-4.5463,0.5954,3.0238,0.6937,12.1927,12.2287,-7.7432,4.1162,8.7594,7.7072,0.0
1741737600.444000,111,10.2102,13.6769,2.6451,5.8369,6.3984,9.4051,-3.0893,1.8712,4.5807,-1.3966,8.8604,11.8693,-7.5805,6.8243,9.3812,8.8570,0.0
1741737600.448000,112,10.0511,15.4558,6.8639,8.2128,8.1058,7.7758,-0.9460,0.8260,4.2944,1.3234,5.9357,11.6680,-10.2407,7.0291,8.5900,7.3448,0.0
1741737600.452000,113,7.9024,17.8040,9.1003,9.1787,10.1316,7.5731,1.0322,2.2365,5.7766,0.9423,3.5188,10.5532,-6.2566,8.2104,8.9648,8.2518,0.0
1741737600.456000,114,8.1761,14.7420,12.9459,10.9910,12.8273,9.0286,6.7185,5.1378,5.1469,-0.5113,3.4859,8.6035,-3.7167,8.6009,9.7824,8.2010,0.0
1741737600.460000,115,5.4639,11.9027,14.1330,9.5932,11.9873,8.6530,6.0212,7.7054,5.2482,0.1381,3.1114,6.5924,2.3452,10.9560,7.9304,6.2413,0.0
1741737600.464000,116,2.9194,13.1471,11.9863,6.4671,8.9331,6.9968,4.3784,10.4676,5.3373,-3.6556,6.1474,8.3950,1.1191,11.9036,6.5308,5.0153,0.0
1741737600.468000,117,2.0925,13.9633,7.8231,1.2426,7.0118,4.1085,6.6293,9.8909,4.1091,-2.8184,8.2616,8.7928,7.8517,14.5408,6.3941,1.6060,0.0
1741737600.472000,118,3.0252,9.8487,6.2540,2.3762,1.7572,4.2502,7.9389,11.8444,4.4782,-2.2785,7.8654,5.6517,5.3331,8.7736,4.9748,2.5656,0.0
1741737600.476000,119,2.4551,5.7586,5.2919,1.9238,1.8538,3.5318,9.0131,13.7419,8.9239,-2.1692,9.3645,6.7085,5.4992,7.6776,2.1601,1.6674,0.0
1741737600.480000,120,3.5054,-0.0801,8.1977,8.3271,1.9593,6.6040,10.8751,13.2232,9.1001,-1.1472,7.6057,3.8899,1.3699,4.9115,7.0485,5.3635,0.0
1741737600.484000,121,3.7948,1.1063,10.4378,12.2285,2.7978,5.5360,13.6889,14.1759,8.9041,1.5178,6.2602,1.8995,-1.2075,5.4933,4.6619,5.7220,0.0
1741737600.488000,122,4.2778,0.5733,9.2814,17.1691,4.5161,5.0350,12.3200,10.6722,8.2646,2.2999,1.7665,0.0003,1.2211,2.4781,5.2768,7.6742,0.0
1741737600.492000,123,6.1501,-0.7750,7.2297,15.5288,5.1246,6.8338,10.3460,10.2239,6.2071,2.9184,-0.8928,-0.7582,2.0605,3.7513,8.1154,6.4392,0.0
1741737600.496000,124,1.8995,-5.3810,7.3099,18.7635,7.9884,9.3932,7.6668,8.4725,7.9739,4.3063,-5.3912,-2.5111,4.6478,8.1552,5.4526,5.9983,0.0
1741737600.500000,125,0.3257,-8.8911,6.1316,14.5237,11.3979,16.5959,8.4187,7.1984,6.4922,0.8168,-4.8934,-0.6013,6.2577,10.4829,3.1090,6.0073,0.0
1741737600.504000,126,0.1077,-10.8951,4.6954,11.9055,12.1354,20.7290,6.6429,7.2703,6.5056,-0.4639,-3.8653,3.4839,8.4941,12.0751,-0.8103,6.7234,0.0
1741737600.508000,127,0.7022,-8.1782,4.1031,10.6883,8.2546,18.5533,2.9125,4.1040,4.9587,-2.1649,-2.8967,4.1556,6.5548,13.7295,0.1609,7.2100,0.0
1741737600.512000,128,6.2223,-1.2824,2.7922,3.9654,7.8044,16.1912,5.3993,0.7676,6.4126,0.7909,-0.2855,4.9519,6.7338,12.0959,0.0607,6.8477,0.0
1741737600.516000,129,11.1015,1.0683,3.2435,3.0080,4.5411,12.0454,7.4029,-2.4761,4.6266,0.0757,2.8376,5.8473,10.3452,10.5751,1.6699,5.0386,0.0
1741737600.520000,130,11.4750,-1.4020,7.9679,2.3141,10.8209,6.9347,9.3128,-1.0846,5.0014,5.4019,4.1991,1.5700,8.0023,8.2935,7.6863,3.2796,0.0
1741737600.524000,131,8.4688,4.0575,12.8581,3.9666,12.2708,3.7191,9.0771,-4.2450,4.8473,3.8873,3.3642,0.5698,3.2050,4.2680,6.7777,2.7974,0.0
1741737600.528000,132,2.6937,7.8043,13.3385,7.5800,15.6722,1.3463,10.0640,0.7389,4.2509,3.9304,7.1026,-4.3153,6.3757,6.2987,8.7637,1.5670,0.0
1741737600.532000,133,-0.3031,6.9104,9.8663,12.4783,15.5237,-0.0258,9.9707,0.5346,0.5856,5.0124,6.0131,-9.1201,8.4451,5.8756,12.6349,-5.2770,0.0
1741737600.536000,134,-4.8836,6.0918,3.1671,9.3844,13.4428,1.3235,7.9299,1.4669,-2.0859,4.3641,1.1573,-11.4491,9.6435,7.0224,16.4380,-6.5532,0.0
1741737600.540000,135,-12.6675,0.4614,-2.3491,8.1468,12.9879,5.2503,7.5284,3.6753,-7.1555,0.5784,0.1226,-11.5323,12.2875,6.0519,12.9986,-7.5796,0.0
1741737600.544000,136,-14.4294,-1.5496,-6.1870,1.2646,10.3315,5.1721,6.0441,5.6010,-8.2476,-3.5128,-1.4928,-12.4728,13.0796,1.5857,14.0063,-11.0673,0.0
1741737600.548000,137,-14.2693,-3.9591,-11.7999,1.6995,8.9973,2.7063,8.6298,4.1234,-7.8647,-2.8893,1.0741,-8.7966,9.6916,0.4761,9.0904,-9.8473,0.0
1741737600.552000,138,-14.4861,-4.3491,-12.5956,0.6564,8.7356,3.2775,8.5362,5.8937,-9.9340,-4.9455,-0.6956,-7.2016,9.9029,-1.3213,8.4374,-11.2766,0.0
1741737600.556000,139,-8.2024,-2.5071,-13.1056,2.2410,8.8774,-1.0142,12.8590,1.6828,-5.0100,-4.0709,-2.1532,-5.1477,11.6843,-4.7090,6.5897,-8.1925,0.0
1741737600.560000,140,-1.0698,-1.3517,-10.4472,2.5997,12.2021,-3.6867,13.4525,-0.0007,-8.0490,-2.4036,-0.9794,-4.7439,12.2232,-3.6457,5.7876,-5.1833,0.0
1741737600.564000,141,-2.9160,-1.2757,-6.7492,3.4565,12.4410,-3.1187,14.8328,1.9130,-6.5286,-3.4840,-2.6642,-4.2373,10.4987,0.6942,4.6352,-3.9738,0.0
1741737600.568000,142,-3.8428,1.1973,-3.5320,6.7599,13.7261,-1.5347,16.4734,3.4123,-6.7208,-6.2696,-6.0817,-3.6653,9.6313,4.3300,0.8222,-3.3849,0.0
1741737600.572000,143,-6.4428,1.2497,-2.5502,9.1865,13.2844,0.8506,10.0544,5.4870,-4.0849,-6.0634,-8.1617,-4.3106,12.1350,8.9026,-6.4009,-5.1064,0.0
1741737600.576000,144,-6.8662,0.9270,-2.7935,3.1398,6.4720,4.1449,6.6942,5.1679,-2.5217,-9.8241,-9.4728,-6.1588,13.0411,12.6849,-6.7289,-5.3485,0.0
1741737600.580000,145,-3.3906,-1.1158,-4.3062,-0.6009,1.8316,5.2655,4.0202,3.5843,-2.2898,-8.3546,-5.5685,-4.6965,15.0033,8.0206,-8.0086,-4.4679,0.0
1741737600.584000,146,0.5718,-4.4602,-5.0527,-6.4296,-1.8013,6.9860,2.0380,3.8444,1.5015,-6.8578,0.6882,-1.1994,15.9050,6.7075,-8.0293,-2.6382,0.0
1741737600.588000,147,2.9122,-7.0699,-5.0844,-9.8851,-6.3067,1.2418,-1.2505,-0.9340,4.1186,-4.1252,7.3976,3.1848,11.1594,3.1973,-9.3027,0.1751,0.0
1741737600.592000,148,5.1275,-2.6751,-4.1169,-8.6913,-9.5539,-2.6574,-4.0003,-3.7808,5.6832,1.6937,8.6987,4.9651,3.0889,1.8298,-8.4010,2.7246,0.0
1741737600.596000,149,5.5925,-3.3077,-0.1791,-4.9367,-7.2875,-4.8518,-3.7379,-6.9203,8.8117,7.5557,9.4446,2.9874,-3.6686,-2.7210,-3.6047,3.4410,0.0
1741737600.600000,150,7.0751,-1.4568,3.2111,1.4154,-2.4950,-5.0324,-1.8726,-9.1456,9.0180,9.5869,8.1704,-0.6218,-6.2954,-5.5897,-0.4576,10.3276,0.0
1741737600.604000,151,4.1810,1.4108,6.2382,1.1110,1.6307,-2.6865,-2.7766,-10.5186,6.7624,9.2486,3.6968,0.6447,-5.9697,-6.7748,4.4916,10.8760,0.0
1741737600.608000,152,-1.2884,1.7347,3.0451,1.1956,4.9959,-3.6526,-9.8894,-10.6321,2.4146,11.4534,2.8501,-0.7898,-4.1056,-2.4639,6.7278,7.8064,0.0
1741737600.612000,153,-5.1175,0.2807,-0.7844,-2.6702,1.0628,-1.9470,-14.3653,-12.0558,-5.7151,8.6777,-2.8167,0.5983,-3.9514,-1.6651,4.7534,3.7385,0.0
1741737600.616000,154,-4.7840,-1.8085,-5.9221,-8.5447,-0.5222,-2.3383,-13.4721,-9.2811,-4.6189,5.2330,-3.8959,-0.0104,0.6835,-1.5988,2.2085,0.0809,0.0
1741737600.620000,155,-1.5819,-2.9770,-7.7845,-11.0884,-0.3244,-2.5056,-11.4723,-12.2280,-6.0906,4.2786,-3.0299,2.1714,3.2652,-5.5838,2.7490,-3.3656,0.0
1741737600.624000,156,0.0616,-3.9812,-6.5548,-15.6675,-0.2341,-3.5484,-8.8158,-9.5854,-3.8688,0.0915,0.1512,4.4433,4.2671,-9.1301,0.2874,-1.4127,0.0
1741737600.628000,157,4.5423,1.9573,-4.9352,-16.7397,0.1227,-9.1555,-3.2072,-10.4790,-6.9743,-0.9236,6.6537,10.0112,6.6270,-9.9819,-2.4340,-2.6273,0.0
1741737600.632000,158,6.5344,5.4336,-1.5375,-13.0632,-1.0900,-12.1938,1.3998,-8.4529,-3.8738,0.5181,6.9207,10.0206,5.0857,-11.1608,-3.1723,-3.4660,0.0
1741737600.636000,159,8.4512,11.8601,1.5982,-9.2898,-1.8003,-15.9271,6.7357,-4.9755,-2.1542,-0.1546,2.6550,7.4496,2.0089,-9.9049,-1.2769,-2.1280,0.0
1741737600.640000,160,6.8489,11.1552,3.6805,-2.5538,1.6106,-15.1586,7.8772,-2.7563,-0.3312,0.0960,-1.0971,-1.9665,3.8555,-9.7465,0.8218,-2.2529,0.0
1741737600.644000,161,4.7384,9.4957,10.8362,1.0148,0.8036,-9.3751,9.9347,4.7580,0.1763,-3.5470,-1.7304,-6.3353,5.8678,-8.8409,0.3160,-2.2164,0.0
1741737600.648000,162,3.0291,4.5203,11.0994,1.8827,-2.3373,-4.4398,10.1533,10.3218,1.0943,-7.3564,-2.8947,-7.6847,8.9238,-5.7339,-0.7563,-2.6133,0.0
1741737600.652000,163,-3.4939,-0.5327,8.4233,-0.9935,-5.2399,-1.3022,1.9132,11.1417,2.7751,-8.6546,-3.4728,-7.8968,10.4729,-3.8497,-2.3144,-5.8685,0.0
1741737600.656000,164,0.5341,-2.9686,0.2305,-1.8288,-10.9802,1.1841,-1.1181,9.6608,5.1230,-4.6175,-1.8400,-2.7280,10.9440,-0.0718,-7.2828,-2.1031,0.0
1741737600.660000,165,4.1644,-7.1251,-2.4834,-2.9039,-15.4896,4.3515,-4.5467,6.2475,7.2588,-5.2292,-0.6130,2.1117,10.7469,0.8812,-7.9300,0.3188,0.0
1741737600.664000,166,8.6600,-8.4804,2.7616,-0.0786,-15.2413,4.0100,-0.8274,4.9305,9.6905,-1.1797,3.6565,4.5608,5.3591,0.8003,-9.2008,5.7829,0.0
1741737600.668000,167,12.8368,-9.8442,5.0841,-1.5337,-12.4410,5.2029,2.4484,2.3420,11.9346,0.3120,6.5809,6.9060,0.0544,-3.7045,-9.2854,11.5053,0.0
1741737600.672000,168,12.8410,-3.1536,11.7952,3.5255,-6.5177,5.0439,3.0037,-1.5750,17.4260,3.1269,6.3248,8.7951,-3.7602,-4.0656,-5.2710,14.3819,0.0
1741737600.676000,169,12.3102,4.2679,13.1640,11.7363,-2.5911,3.7242,0.5203,-1.1355,15.6067,9.5278,6.5911,6.5303,-6.9797,-1.9826,-4.9759,16.3256,0.0
1741737600.680000,170,10.4052,7.0756,13.1191,13.8655,-1.8616,4.6533,-1.3454,-4.0414,14.3409,12.5574,1.3133,5.8118,-2.0959,3.4998,-1.4046,15.8323,0.0
1741737600.684000,171,7.4741,6.9614,11.9184,11.1370,2.4837,6.8299,-2.9347,-3.0091,8.9496,12.9941,-0.6784,3.9665,1.4081,8.9625,0.8440,12.3414,0.0
1741737600.688000,172,4.7590,3.0392,10.7453,5.7204,3.8389,11.0387,-3.7460,1.1485,4.5584,10.0882,1.1939,2.9279,1.0754,11.6242,2.8045,8.1304,0.0
1741737600.692000,173,-1.2571,3.0229,7.5375,-0.3349,3.6924,13.5247,-4.1190,3.3264,5.0191,9.8267,3.7627,2.9020,3.3353,10.3294,1.8053,2.7213,0.0
1741737600.696000,174,-0.0797,2.4586,5.7736,-0.8207,3.5594,11.6455,-5.4994,4.3309,2.8515,7.2893,7.8714,5.3962,2.7191,9.8265,0.6930,2.0903,0.0
1741737600.700000,175,2.5467,2.7236,-0.3749,-1.6192,-0.3036,7.3188,-4.6504,1.8765,0.1256,6.0581,12.1386,6.1866,1.8634,2.4587,2.1361,0.8735,0.0
1741737600.704000,176,8.7232,5.5442,-4.5392,-4.8939,-2.5389,2.1549,-0.8194,-0.7993,-0.9956,6.0027,16.4361,6.3919,1.3370,0.7076,5.2732,2.3122,0.0
1741737600.708000,177,7.6345,6.5756,-3.2240,-1.6657,1.1441,2.1661,1.6422,2.6044,-1.7289,6.4850,14.6325,5.4195,-2.2325,-2.3811,11.1808,-0.8788,0.0
1741737600.712000,178,7.2189,6.2642,2.5424,-0.8973,6.7785,-3.8235,4.4255,2.0867,-6.2605,3.8628,11.2893,-2.7656,-5.2797,-5.8924,11.8272,-3.5487,0.0
1741737600.716000,179,1.5842,9.2662,5.1023,5.6928,11.4642,-3.9314,4.8456,3.1224,-4.6266,0.7828,5.0483,-6.3797,-8.2926,-3.5235,14.3549,-4.9884,0.0
1741737600.720000,180,-2.3005,6.0579,3.5065,7.3904,13.5951,-2.0524,5.2878,6.2721,-5.2227,-2.8058,-1.9537,-10.4866,-4.5544,-2.3018,12.9723,-9.3535,0.0
1741737600.724000,181,-4.6589,2.1227,-0.9525,5.5318,9.4956,1.4494,3.1670,7.7688,-10.0811,-6.0314,-3.5881,-10.8483,-0.5919,3.0430,8.7136,-9.5160,0.0
1741737600.728000,182,-4.1761,0.6422,-4.8354,1.0611,7.9174,5.0186,-1.1339,7.4614,-10.3968,-9.1743,-4.2737,-9.3442,3.5127,5.7417,6.8927,-6.3315,0.0
1741737600.732000,183,-5.5086,-6.4500,-8.0328,-2.3395,3.1572,8.5193,-0.8768,6.9580,-10.5340,-13.1287,-4.4263,-3.4890,2.7889,7.4465,2.6438,-6.7495,0.0
1741737600.736000,184,-5.0044,-9.5342,-7.1187,-3.3305,-0.4785,4.2531,-3.1885,5.8287,-5.7042,-12.2401,-4.5175,0.8020,1.0701,6.5644,-2.3080,-6.9227,0.0
1741737600.740000,185,-1.3300,-5.8291,-7.3116,1.3287,-3.0985,2.2265,0.2730,3.7366,0.6826,-10.3194,-1.0916,2.0091,-1.7549,4.5035,-6.6240,-4.7192,0.0
1741737600.744000,186,3.2971,-3.5796,-2.2401,4.1595,-2.4599,0.5646,1.0768,-1.6666,6.0121,-8.0038,2.4515,2.4326,-3.0095,2.1315,-3.9317,2.3361,0.0
1741737600.748000,187,6.2423,3.6438,2.1387,6.4771,1.4156,-1.1610,1.7636,-5.5158,8.4303,-4.8780,3.3900,3.1711,-4.3076,1.4502,-0.6102,7.1982,0.0
1741737600.752000,188,5.7916,8.0746,6.2327,7.1599,4.5778,-1.6812,0.8642,-4.5274,9.0950,-1.7316,1.9694,2.0493,-5.0975,3.5460,0.4189,8.1766,0.0
1741737600.756000,189,-0.5825,8.7402,8.1016,7.1768,4.6826,-0.1812,0.5970,-0.6644,7.7185,1.7489,-1.7770,-0.1741,-4.8748,7.7975,2.9567,5.9310,0.0
1741737600.760000,190,-5.5991,8.0577,7.9018,9.9684,4.5483,3.2140,-2.1408,0.0123,8.6348,3.7738,-7.0538,-1.4468,-7.8325,12.3763,1.5460,5.7548,0.0
1741737600.764000,191,-9.4437,4.7481,5.8180,8.8442,3.4055,6.1507,-3.0132,3.0248,7.2747,2.4016,-6.6757,-4.0985,-3.1043,11.8502,0.5232,7.2395,0.0
1741737600.768000,192,-6.7819,2.0383,-0.2275,2.7408,0.7500,8.2312,-3.9504,0.8869,6.3177,3.3511,-3.4479,-3.1990,3.1479,9.8982,-1.3095,5.6730,0.0
1741737600.772000,193,-4.7039,-1.7954,-2.2687,-1.7467,-3.2510,6.7152,-2.0864,1.7710,3.2741,2.3844,3.9502,1.7894,4.1850,5.7267,-0.7332,6.4097,0.0
1741737600.776000,194,-2.5548,-1.8226,-4.1328,-8.0446,-3.6620,1.7151,-1.7788,-0.5539,5.0881,2.7250,7.2411,6.1893,3.0889,2.9410,1.0038,3.1468,0.0
1741737600.780000,195,0.8709,0.5049,-4.8906,-6.8599,0.5345,-5.8176,4.7458,-3.0283,4.6965,7.8148,7.9469,6.7750,0.2056,0.4603,1.4268,2.2803,0.0
1741737600.784000,196,2.9689,1.1017,1.4682,-2.0243,1.1017,-7.7458,8.0354,-3.8131,5.1341,9.4619,6.7423,3.4099,-1.8749,-2.7819,1.6054,1.4025,0.0
1741737600.788000,197,2.5441,4.2635,4.3435,0.9661,6.7997,-9.7918,13.7977,-1.3298,2.5087,7.6190,5.0680,-3.4962,0.0047,-6.6719,6.5374,1.2846,0.0
1741737600.792000,198,-0.4420,5.9699,6.5389,2.5056,9.0837,-7.2090,14.3341,0.9430,-2.5352,3.9246,2.5907,-6.0425,1.9844,-6.8704,7.3705,0.9730,0.0
1741737600.796000,199,-5.4717,6.0928,3.3844,2.6063,9.6385,-4.4826,13.3811,5.7066,-7.4115,1.8397,-3.9830,-7.3414,4.4376,-3.2000,6.5114,-3.2570,0.0
1741737600.800000,200,-9.1300,2.1643,-3.0054,2.3465,5.6264,-1.6765,10.2173,8.4754,-8.6246,1.6184,-6.9361,-8.2086,9.3364,-1.1385,3.4590,-6.5523,0.0
1741737600.804000,201,-8.1218,-4.3158,-6.8262,-1.5774,-0.8376,2.6732,6.0099,8.3283,-10.5775,-2.5957,-10.0467,-11.5049,12.1935,2.5211,-1.6830,-9.4351,0.0
1741737600.808000,202,-6.8146,-9.1925,-11.5461,-1.1260,-3.3191,2.9354,6.3599,9.6964,-7.8923,-5.3914,-6.2874,-8.6926,9.0409,-2.2743,-5.0606,-11.3947,0.0
1741737600.812000,203,-1.2647,-13.4655,-10.4878,-3.4608,-4.0018,5.7857,5.1053,7.7616,-4.5114,-5.8248,-1.9253,-5.0277,8.4773,-5.6551,-7.3439,-7.5191,0.0
1741737600.816000,204,1.5298,-11.4332,-8.2074,-1.6374,-3.2027,6.1339,5.0626,0.3380,-2.2138,-6.7072,3.0652,-0.7069,6.0958,-10.0800,-7.4211,-4.8005,0.0
1741737600.820000,205,4.9020,-7.0671,-2.9282,-0.3789,-1.5680,0.8403,4.7508,-0.9307,-0.3399,-6.3024,3.0067,1.4351,2.4568,-5.9006,-5.5225,-0.3549,0.0
1741737600.824000,206,6.3342,-1.2366,-2.4131,0.5430,-0.4514,-0.6305,3.5960,-4.3519,1.3422,-3.4147,1.3184,-1.0963,0.3426,-6.0534,-3.8498,-2.4529,0.0
1741737600.828000,207,5.2990,-1.4463,-2.0214,3.2368,0.6756,2.9807,1.8259,-4.1196,3.8512,-2.0997,-6.1767,-5.1585,-3.7152,-1.8225,-0.9221,1.9984,0.0
1741737600.832000,208,4.3826,-1.8447,0.5079,2.6305,3.3205,4.7218,1.6046,-4.8631,3.5856,-7.3439,-10.5184,-10.7247,-2.3670,0.9073,1.3318,2.6483,0.0
1741737600.836000,209,-2.8590,-4.6518,1.3924,-0.8374,4.9740,7.0002,-2.5424,-4.0646,0.5541,-4.2931,-11.0888,-11.1171,-1.6887,2.5634,-0.3740,-0.0495,0.0
1741737600.840000,210,-2.5001,-6.9022,-0.0921,-4.5073,5.6108,6.2726,-6.1452,-5.2796,-2.6107,-6.4492,-6.5830,-9.8629,1.1975,4.5844,-0.8025,-0.1388,0.0
1741737600.844000,211,-1.9514,-5.0395,-5.0142,-5.1263,3.0267,3.1877,-11.7410,-7.2007,-2.5929,-6.1865,-4.5018,-4.5411,2.1022,2.7844,-1.7701,-3.3132,0.0
1741737600.848000,212,1.4428,-6.2993,-5.2588,-9.7610,-1.5749,-2.9098,-10.0181,-11.2647,-2.2700,-3.6180,-0.4088,-0.9536,3.9237,-2.5990,-2.8322,-3.3316,0.0
1741737600.852000,213,1.3066,-6.0451,-3.9869,-11.7405,-0.8179,-6.6222,-9.7792,-15.1370,-0.8017,0.4856,3.4673,2.7658,-0.8167,-3.9482,1.1199,-2.2024,0.0
1741737600.856000,214,-1.1623,-2.5787,-2.0869,-6.4067,4.0478,-9.2001,-6.1944,-14.3438,0.0757,-0.9767,4.4336,3.4525,-4.9909,-6.4091,2.6784,-0.7545,0.0
1741737600.860000,215,-3.8593,2.7288,0.5134,-2.8274,6.5064,-9.4588,-2.9284,-12.9755,-1.2468,-0.1236,5.0668,0.7516,-6.3745,-9.5477,3.8167,1.5331,0.0
1741737600.864000,216,-7.4202,7.5250,-1.0294,1.9001,8.9859,-13.2991,-1.6530,-8.6103,-4.1922,1.4271,-0.0308,-2.9224,-5.7253,-9.4077,7.3481,-3.5749,0.0
1741737600.868000,217,-11.5110,10.3267,-2.5128,3.8450,7.0025,-10.6268,-0.3962,-10.2789,-4.6260,0.2367,-5.0654,-7.9527,-4.1299,-7.6704,7.9515,-5.2348,0.0
1741737600.872000,218,-11.2821,6.7688,-5.0117,1.7536,8.5009,-11.4764,-1.2010,-3.2976,-7.0968,-0.7940,-8.6918,-11.5164,2.3197,-5.6590,6.7669,-4.8281,0.0
1741737600.876000,219,-11.3530,0.4291,-6.1253,-2.7479,4.4940,-9.3769,0.7868,0.9000,-8.3509,-6.2485,-9.4972,-10.6678,5.0712,-1.9050,2.6127,-6.3362,0.0
1741737600.880000,220,-13.0757,-5.5560,-9.6362,-4.5289,3.7734,-5.4341,0.8444,3.8874,-7.5094,-10.4342,-12.1203,-6.5912,9.1496,-2.1946,-4.9065,-9.3682,0.0
1741737600.884000,221,-12.1945,-8.5136,-8.0345,-5.5583,1.5727,-3.2501,4.4912,8.4729,-4.8459,-9.9105,-9.1703,-3.7330,10.9346,-2.8572,-9.0500,-7.2779,0.0
1741737600.888000,222,-3.7694,-6.8833,-6.5008,-3.0371,-3.5900,-4.6151,7.7166,4.7988,-2.6141,-9.8608,-4.9672,2.1429,9.4881,-3.4536,-11.3453,-3.3607,0.0
1741737600.892000,223,2.2509,-5.1384,-3.7553,-2.9389,-8.0695,-4.6479,11.6567,2.8000,0.5459,-9.7050,-2.1797,5.0611,11.2591,-1.6457,-10.5068,0.8052,0.0
1741737600.896000,224,5.0245,-3.4285,0.9481,-5.0327,-6.7566,-5.9968,11.0347,2.3025,4.5851,-7.3486,-3.1773,2.8028,8.7018,-4.1642,-12.2068,3.7945,0.0
1741737600.900000,225,5.5591,-0.5354,5.1754,-2.8342,-6.1257,-4.9779,12.9535,6.9591,5.4833,-5.7099,-5.2313,-2.5097,5.8998,-0.8246,-9.4049,5.4455,0.0
1741737600.904000,226,2.6222,-1.0688,8.2399,-0.7824,-4.7514,-5.0358,12.4067,6.2412,9.1416,-3.0424,-7.7322,-4.8065,5.3422,0.8534,-11.7483,3.4283,0.0
1741737600.908000,227,0.4862,-1.2728,10.5166,3.4779,-4.6876,-1.3843,9.0207,7.6492,9.0546,-0.8159,-8.0663,-7.8378,6.6062,3.7050,-8.9359,4.9593,0.0
1741737600.912000,228,1.7191,-5.5046,7.5081,3.7133,-8.6024,2.2934,1.8937,7.0107,8.6582,2.1464,-4.3752,-9.5889,6.3574,4.6711,-9.8575,4.3479,0.0
1741737600.916000,229,0.5061,-12.0527,6.4566,0.8767,-11.0128,2.3043,-0.8581,2.0581,6.9875,3.8213,-1.8947,-7.7363,5.3136,3.3384,-8.8311,6.3532,0.0
1741737600.920000,230,0.2097,-14.8924,1.9823,-1.4382,-12.7325,6.1666,-6.1477,2.8490,5.6769,6.7576,1.0475,-0.6155,3.6346,4.6306,-8.2068,5.1053,0.0
1741737600.924000,231,-2.6328,-15.9100,-0.9110,-1.9294,-11.2628,7.3945,-5.2349,1.4077,6.2143,9.0083,1.3130,0.8114,-1.6681,2.0928,-7.5884,4.7956,0.0
1741737600.928000,232,-0.6416,-14.4357,-3.1980,-0.9990,-7.6700,5.9449,-4.5280,-2.2752,4.9933,10.6502,0.8383,3.0343,-7.9389,-2.2397,-4.5451,3.0356,0.0
1741737600.932000,233,-0.3284,-11.3015,-5.0743,1.9555,-1.7647,7.1764,-6.2814,-8.2958,1.3383,11.3772,2.5261,-0.7192,-9.5712,-5.2442,0.7748,3.1938,0.0
1741737600.936000,234,2.8850,-4.9783,-4.2283,-0.8890,2.1607,5.7419,-6.6545,-10.9641,0.6884,10.8262,2.2512,-1.5874,-8.8748,-7.4495,6.4090,3.6677,0.0
1741737600.940000,235,0.6974,-2.8658,-5.3577,-3.7106,6.5334,3.9642,-9.8007,-14.0656,-6.4527,6.0326,-0.5925,-6.4325,-9.8458,-7.0826,8.5009,-2.0685,0.0
1741737600.944000,236,-3.5386,-0.7817,-6.3910,-8.7840,10.5675,3.6956,-11.3261,-10.6073,-13.2569,3.8442,-2.1723,-7.0560,-6.3799,-3.2767,10.2884,-8.0799,0.0
1741737600.948000,237,-5.4998,-4.5272,-6.2441,-10.7132,10.5540,2.9612,-9.1399,-6.9313,-14.8002,2.3183,-8.4804,-10.1612,-4.9808,0.5672,7.2630,-13.0298,0.0
1741737600.952000,238,-8.8872,-3.6331,-8.2280,-12.5753,12.8483,3.4727,-8.2282,-4.1331,-17.7621,-2.7098,-10.6838,-11.4161,-4.0086,-1.2870,6.2990,-17.5850,0.0
1741737600.956000,239,-7.1886,-4.6316,-9.0292,-11.4345,9.2893,-0.9827,-8.8448,-4.8054,-19.4911,-8.2731,-6.4546,-11.2739,-2.0484,-3.1819,5.5040,-18.6144,0.0
1741737600.960000,240,-6.8316,-4.9771,-12.6802,-12.4522,6.1246,-4.8794,-5.3973,-5.6471,-20.2235,-13.2536,-3.1318,-8.5800,-0.8452,-5.4768,4.9087,-19.6480,0.0
1741737600.964000,241,-8.6175,-2.5880,-11.8833,-9.1985,2.1053,-10.3313,-4.2313,-5.6390,-17.6347,-14.5052,1.1468,-7.4781,-0.8470,-6.6854,5.2908,-21.0010,0.0
1741737600.968000,242,-8.9041,1.0265,-9.5786,-10.5184,1.1353,-12.2835,-3.7091,-7.3696,-13.4575,-14.4906,-2.4155,-8.2538,-2.2423,-7.5286,4.2263,-19.6223,0.0
1741737600.972000,243,-10.8623,3.7433,-7.3795,-5.5676,0.6671,-15.1122,-1.9316,-6.4554,-11.3944,-14.1685,-3.5578,-11.8280,-7.2943,-7.1549,5.9123,-18.0332,0.0
1741737600.976000,244,-12.3642,2.4927,-5.8355,0.5619,1.6115,-11.1058,-3.0234,-5.6417,-5.0574,-11.3926,-4.6370,-15.4304,-9.0987,-8.1022,5.0797,-11.6503,0.0
1741737600.980000,245,-15.4736,4.4468,-5.1672,3.0338,1.1215,-11.1643,-3.6748,-1.8456,-5.1019,-12.5936,-6.1775,-15.8083,-7.7559,-6.7385,2.3792,-11.3403,0.0
1741737600.984000,246,-15.1758,1.1131,-7.1116,3.3769,-0.3134,-6.5935,-5.4537,-0.9127,-2.1361,-13.1746,-9.0508,-12.9461,-3.6836,-2.8043,-1.1354,-6.1267,0.0
1741737600.988000,247,-14.4278,-1.0499,-9.0240,4.9392,-2.5975,-7.4663,-4.4041,-1.8487,-2.1671,-10.6735,-11.2341,-9.1585,-4.3046,1.6095,-2.0082,-0.8130,0.0
1741737600.992000,248,-12.7416,-0.5524,-11.1812,3.6618,-6.5779,-5.7800,-3.8965,1.4247,1.8067,-6.4863,-13.2864,-6.4834,-1.8316,3.0492,-8.2114,-0.3736,0.0
1741737600.996000,249,-10.1652,-3.9207,-8.0918,1.9312,-9.0205,-4.8687,-2.1989,-0.9227,5.1908,-8.3270,-12.0342,-0.1798,-0.5693,4.7633,-12.4900,5.3608,0.0
1741737601.000000,250,-7.8600,-5.3221,-6.6989,0.6091,-8.0277,-3.1525,-1.7872,-0.8288,6.7609,-2.8183,-8.0462,4.2168,-0.5596,1.9746,-13.7340,8.9015,0.0
1741737601.004000,251,-0.5621,-4.5216,-1.3781,-1.6227,-6.5230,-3.9195,-0.1217,-3.9824,10.5434,-0.1977,-2.6435,6.3897,-1.5132,2.6771,-14.2568,10.1559,0.0
1741737601.008000,252,1.5645,1.3985,-0.4436,-2.4179,-3.8837,-5.1672,2.6759,-6.0996,9.9691,2.1867,1.0426,9.2903,0.2588,2.7599,-14.0393,11.6070,0.0
1741737601.012000,253,3.2247,3.3605,4.6493,-6.3321,-3.4068,-5.2277,1.9776,-5.1105,8.6353,5.9004,2.4688,8.3291,0.4658,4.9189,-12.1396,10.6256,0.0
1741737601.016000,254,-0.2824,5.6912,4.7434,-9.0830,-6.0837,-5.2671,5.8733,1.0876,6.3846,7.3860,-0.7938,3.9297,0.9250,4.0093,-11.3974,9.5841,0.0
1741737601.020000,255,1.8313,1.5832,1.9325,-10.0862,-6.7753,-5.1538,7.3749,2.3724,5.6120,8.5273,0.6841,0.2062,3.6615,2.3407,-8.8123,6.0387,0.0
1741737601.024000,256,-0.3704,-2.4651,3.9203,-10.4739,-8.8397,-4.6907,3.4361,3.9571,3.0394,7.0847,2.1409,-1.9028,2.0409,0.7863,-8.6532,5.2356,0.0
1741737601.028000,257,1.6672,-8.3663,2.1102,-10.7606,-10.5693,-4.2156,3.7333,7.3736,1.3977,6.6681,3.0285,-3.6972,0.1942,-3.8494,-8.4800,0.4068,0.0
1741737601.032000,258,1.1854,-11.6619,-0.9381,-8.9814,-12.1728,-4.0168,3.8970,4.7075,0.6461,8.7795,3.3652,-2.1723,2.1106,-6.4053,-7.6107,0.2044,0.0
1741737601.036000,259,2.1392,-17.1128,-3.5574,-10.4091,-9.9887,-4.4201,-0.2880,1.9538,-0.6114,7.4313,2.9200,-4.4517,-1.1202,-9.1295,-5.9870,-3.6931,0.0
1741737601.040000,260,2.4520,-18.0666,-3.4225,-8.7230,-9.7910,-0.4903,-1.8386,-1.2240,-2.8308,6.4365,3.8743,-4.3031,-2.9538,-12.6709,-4.4155,-5.2037,0.0
1741737601.044000,261,0.0979,-16.9238,-6.1600,-6.5011,-4.3971,2.4361,-4.1948,-5.1435,-6.3123,3.5105,-0.7120,-1.7023,-7.0225,-13.7794,-5.6632,-5.3692,0.0
1741737601.048000,262,3.0382,-15.3257,-6.2883,-6.1932,-2.3017,3.6048,-5.6048,-7.8807,-8.2993,1.1298,-4.2189,-4.5548,-10.6281,-15.4386,-4.5587,-6.6377,0.0
1741737601.052000,263,3.2372,-12.0330,-6.0613,-7.9686,1.7644,7.1568,-7.3503,-8.0847,-10.2348,-3.8885,-7.5330,-7.9433,-10.1381,-15.5280,-0.4407,-5.1053,0.0
1741737601.056000,264,3.2460,-12.7360,-12.1010,-8.2805,3.3395,3.5373,-7.6330,-10.8661,-10.3529,-7.5951,-12.0667,-7.9094,-9.9871,-11.8710,-0.7615,-8.3285,0.0
1741737601.060000,265,4.3003,-12.3126,-9.6033,-10.3596,2.8603,2.7188,-10.0532,-13.2095,-11.7054,-7.1761,-14.2851,-5.4290,-4.8085,-9.2391,-0.7783,-8.8805,0.0
1741737601.064000,266,7.1418,-8.7866,-5.9901,-11.0139,4.3015,1.0349,-13.7062,-12.5327,-10.8755,-9.3717,-12.4670,-4.1250,-3.2138,-8.9374,-1.2377,-8.9050,0.0
1741737601.068000,267,6.0045,-6.5106,-3.6693,-9.5204,1.0398,0.0463,-10.9644,-13.9491,-9.6110,-9.0696,-9.6253,-4.1824,-4.8788,-7.0223,-4.5908,-10.6824,0.0
1741737601.072000,268,6.7228,-3.4331,-1.6038,-8.7242,3.6545,-3.4240,-10.5247,-12.6736,-6.2610,-10.9286,-6.0465,-3.4398,-5.3611,-5.7964,-4.4650,-10.2749,0.0
1741737601.076000,269,6.3029,0.9552,2.0615,-7.0520,6.0996,-4.6937,-8.2187,-13.8249,-6.6235,-10.7334,-2.7771,-3.3605,-4.3916,-5.5143,-3.0216,-8.8984,0.0
1741737601.080000,270,4.5497,6.8181,3.9323,-7.1819,6.0797,-6.1966,-5.7964,-10.0179,-0.2858,-7.0887,-0.2330,-2.5327,-5.1512,-7.4360,-3.1279,-7.4137,0.0
1741737601.084000,271,2.2439,7.0584,4.8720,-4.8713,1.6096,-8.8479,-5.8571,-10.8691,-1.5081,-6.8368,0.1143,-6.5527,-3.1520,-4.1164,2.0841,-7.0827,0.0
1741737601.088000,272,-3.2634,9.1546,1.6332,-2.7986,-0.5101,-9.6278,-4.0664,-4.4289,3.6741,-4.4684,0.0559,-5.8383,-4.5127,-2.4191,1.6355,-4.8588,0.0
1741737601.092000,273,-4.0815,10.5230,0.2508,0.5957,-1.3873,-11.6646,-4.6919,-2.3972,1.1340,-4.4576,-0.3295,-7.7595,-3.4718,-3.0311,3.0972,-5.7557,0.0
1741737601.096000,274,-6.8942,4.2733,0.7062,0.6190,0.5399,-8.0567,-2.7064,1.7421,4.1035,-1.1817,-0.7270,-8.9057,-3.8701,-3.6147,0.7433,-2.7644,0.0
1741737601.100000,275,-6.7854,2.6477,1.2127,2.9591,-0.3936,-9.6383,1.6191,2.2874,2.9118,0.0269,-0.8986,-6.0467,-0.6998,-2.5771,1.5898,-0.0492,0.0
1741737601.104000,276,-4.8103,0.5834,1.2050,4.8917,-1.3208,-7.5406,3.3952,7.4471,4.3418,3.4363,2.3443,-1.5801,3.8470,-3.0104,-3.0595,1.9409,0.0
1741737601.108000,277,-4.5068,2.4164,-2.2949,2.2817,-1.0559,-5.9811,4.3815,6.2107,3.5451,3.6509,1.3911,2.1825,0.4824,1.3876,-3.4088,5.8121,0.0
1741737601.112000,278,-4.6887,0.6998,1.4570,3.8048,-1.7351,-3.0015,5.5407,6.4522,5.7565,6.2294,0.9260,7.9586,3.9321,3.8053,-6.6186,6.4092,0.0
1741737601.116000,279,-2.7867,2.8728,0.7587,4.7104,-1.7104,-0.3292,7.3150,7.2090,6.3187,6.2144,0.7345,8.8936,1.2835,5.2240,-9.8811,7.5021,0.0
1741737601.120000,280,-2.7242,1.1549,4.1127,3.7434,-2.6074,3.5085,9.2338,7.8885,9.2610,6.8177,1.4340,9.7688,2.6754,5.2883,-12.1433,8.7227,0.0
1741737601.124000,281,3.6593,4.2585,4.5008,1.8559,-2.7177,5.6956,9.2819,8.9477,7.3027,5.5184,4.4632,8.3226,5.3137,5.9177,-10.6832,7.9243,0.0
1741737601.128000,282,7.8218,5.7929,3.6706,-1.4002,-7.1504,5.9278,4.9868,8.3750,6.7886,5.8263,7.9678,7.9082,5.0732,7.3980,-12.2468,9.1650,0.0
1741737601.132000,283,10.8412,4.3426,4.1569,-2.4364,-9.7483,7.1896,3.9696,9.2767,7.8783,10.1470,9.5430,11.0583,3.7122,7.3227,-11.6526,11.4040,0.0
1741737601.136000,284,11.9232,4.0185,7.4459,-4.4581,-9.2736,7.1886,1.1894,9.4660,8.9267,10.9202,9.9443,8.9789,1.2714,7.9219,-11.1308,10.7339,0.0
1741737601.140000,285,12.4201,1.5780,9.9880,-4.0888,-9.3249,7.7530,-0.4155,5.5270,10.5410,12.5960,14.1894,9.0145,-2.6381,7.7958,-8.3770,10.0413,0.0
1741737601.144000,286,11.3135,1.5795,10.0075,-0.4890,-10.1045,8.9312,-2.7947,5.2884,11.0790,11.6435,14.0214,6.6326,-6.6739,3.2915,-6.3481,8.7691,0.0
1741737601.148000,287,10.9928,3.0218,8.6490,1.5582,-7.7542,8.0429,-6.2508,0.8038,8.0898,12.1452,13.6217,6.6106,-11.6946,4.5593,-3.5681,9.9005,0.0
1741737601.152000,288,5.2459,3.2320,2.7928,-0.1516,-6.1700,7.8241,-9.1933,-2.0604,5.0326,12.4141,13.9656,3.1891,-13.1433,1.1969,2.4012,7.2936,0.0
1741737601.156000,289,6.4726,2.2134,4.6395,-3.3476,-4.4612,9.0116,-12.3319,-6.2352,4.2278,10.9448,12.3366,3.6045,-14.0977,2.0705,7.3025,4.9227,0.0
1741737601.160000,290,5.5798,3.4116,0.3832,-6.5079,-0.2172,9.8009,-14.2670,-6.1212,-0.2761,9.7854,9.0651,3.2090,-13.8554,-3.0639,8.8841,1.4195,0.0
1741737601.164000,291,2.8914,1.3214,-0.7104,-8.3031,2.1342,9.1170,-13.2598,-8.5040,-4.0226,4.5678,7.7034,2.6528,-14.4953,-3.6307,9.8036,0.5203,0.0
1741737601.168000,292,0.9889,2.9130,-3.4720,-9.8986,5.9358,4.9761,-13.1697,-9.7897,-6.8072,2.8802,7.0726,1.9424,-13.7314,-3.5177,10.9915,-3.7525,0.0
1741737601.172000,293,2.8615,5.0998,-1.7345,-8.3640,7.8052,1.3508,-11.8062,-10.2054,-10.4555,0.5661,4.7076,4.3609,-13.7227,-6.3172,11.7495,-3.5691,0.0
1741737601.176000,294,2.8520,7.6814,-4.3779,-6.0227,9.3619,1.0979,-8.5394,-9.4307,-11.1148,-2.6339,3.2616,3.8843,-9.1584,-6.1487,13.7042,-7.6447,0.0
1741737601.180000,295,0.1045,8.2603,-3.8348,-7.3118,13.4480,-1.2301,-2.0826,-6.1645,-13.8072,-5.1754,1.3015,3.2326,-8.2536,-5.9738,12.5754,-7.9188,0.0
1741737601.184000,296,0.7025,10.7169,-0.9767,-4.7251,12.3374,-4.4940,0.9056,-2.3040,-13.1532,-7.3237,-3.2007,0.7459,-6.2971,-4.2752,11.5074,-10.6747,0.0
1741737601.188000,297,-0.8111,9.9634,-1.5008,-0.9099,13.6376,-5.0366,3.6639,1.3373,-10.7801,-11.1526,-1.8221,-0.9285,-5.5140,-3.5161,9.9676,-12.2462,0.0
1741737601.192000,298,-3.7460,8.6556,-0.1201,1.8255,9.4518,-6.3153,4.9771,3.3019,-9.3137,-13.0601,-2.3997,-3.7464,-1.0991,-2.1831,8.4780,-11.4322,0.0
1741737601.196000,299,-1.5848,10.6688,0.7864,1.2263,5.5619,-1.8042,7.7983,6.8022,-6.5325,-16.1825,-2.0019,-5.6540,2.7388,-0.5176,7.7536,-11.5817,0.0
1741737601.200000,300,-2.2146,7.0293,-0.3485,1.5000,4.8697,-1.4874,6.6101,9.7607,-2.4452,-14.9215,0.2263,-3.3377,4.0601,0.4396,7.7224,-9.0839,0.0
1741737601.204000,301,-1.6805,1.8423,0.9708,-0.2846,1.5886,1.4680,9.7359,11.7475,0.2948,-14.0300,-1.3460,-3.3094,5.1644,1.8388,3.4012,-4.4018,0.0
1741737601.208000,302,-3.4639,-1.4850,2.7462,3.8038,-0.5370,1.4398,7.4995,12.2476,5.8418,-12.9207,-4.3730,-3.3798,1.4831,4.4150,-1.6577,-2.2499,0.0
1741737601.212000,303,-1.9230,-1.0985,1.9341,8.4483,-1.4303,2.9055,8.7185,11.0231,11.3708,-11.6104,-3.9729,-2.7498,1.9949,4.4662,-3.0913,3.3674,0.0
1741737601.216000,304,2.9976,-4.6828,4.5942,11.1577,-2.8308,6.1558,6.9970,10.6486,13.8103,-7.9900,-1.8168,-3.0926,-0.8111,5.5633,-4.0077,8.3842,0.0
1741737601.220000,305,2.8810,-5.0656,8.1964,13.3117,-3.0724,7.2278,7.4556,8.3575,15.5412,-4.5855,-1.9421,-0.2610,-0.9155,6.4194,-2.2802,10.4015,0.0
1741737601.224000,306,0.7664,-4.8683,9.1640,10.1078,0.2672,9.5073,5.0027,4.9679,16.5211,-0.3431,-0.3502,0.9992,-0.8831,8.2534,-3.2607,13.5386,0.0
1741737601.228000,307,3.8271,-5.3077,11.1389,10.7755,-1.9093,10.3946,4.7020,3.5974,13.1134,3.8157,0.0517,4.8600,-0.1708,11.3241,-5.0931,13.6447,0.0
1741737601.232000,308,-0.2334,-3.0433,9.8369,8.5777,1.0545,10.2704,-0.9318,-0.0679,14.8425,6.2604,-2.1690,3.3346,-1.5312,13.9494,-3.7403,14.3946,0.0
1741737601.236000,309,1.0087,-2.0770,7.6052,7.8467,2.0597,9.8584,-0.7888,-3.3609,11.5811,8.1218,-1.8886,4.2829,0.5375,13.1023,-5.7262,12.7837,0.0
1741737601.240000,310,-0.1459,-2.2160,4.3546,6.4011,1.4345,10.4784,-1.2714,-5.8976,10.4932,8.1306,2.1995,4.5606,0.1603,13.0973,-3.8881,12.4404,0.0
1741737601.244000,311,1.3110,1.7853,4.5325,3.1299,3.9314,10.6557,0.6997,-2.9658,6.5141,11.6202,5.7554,6.2154,0.7493,12.1860,-1.0797,10.9226,0.0
1741737601.248000,312,-0.3153,1.8553,3.8604,2.7899,5.7273,7.6192,2.7018,-3.8284,2.3286,13.3038,4.5700,4.2491,-1.2742,9.5108,0.4509,9.2966,0.0
1741737601.252000,313,0.4570,6.4911,2.6294,0.9933,8.1334,2.9363,0.6095,-3.3836,0.4916,12.4999,5.0149,2.1566,-0.6980,4.5957,4.2395,3.8403,0.0
1741737601.256000,314,-3.3281,7.4620,0.8350,2.6702,7.5157,1.0642,4.7322,-2.1968,-1.9807,10.2647,3.5848,0.4026,1.1774,1.2161,5.7138,-0.7424,0.0
1741737601.260000,315,-5.6122,5.6153,-2.3802,0.3615,10.5082,-0.1928,5.5846,0.0812,-5.3451,7.4416,6.1718,-5.9680,1.7403,0.6241,6.2007,-4.7242,0.0
1741737601.264000,316,-5.8327,0.8308,-3.5396,-0.5053,11.5664,1.2188,6.1535,-0.2867,-9.6469,1.1774,2.9788,-9.4084,5.4792,0.4687,7.6605,-10.3750,0.0
1741737601.268000,317,-8.6816,0.7192,-4.3840,-4.2267,12.9540,-0.5865,7.1907,2.3283,-15.6147,-3.4111,-0.7242,-7.7373,7.1995,-2.1635,7.3430,-11.8390,0.0
1741737601.272000,318,-12.2837,-2.1484,-7.3405,-2.7568,11.3767,-3.1429,7.5287,6.2714,-17.0854,-4.2443,-2.5796,-12.2301,9.2351,-2.9967,4.3870,-14.2822,0.0
1741737601.276000,319,-9.2889,-4.3773,-10.8266,-3.6956,10.1260,-2.6450,10.5172,4.9512,-15.7698,-9.8679,-5.8031,-11.5841,10.3288,-2.4220,2.0345,-17.2354,0.0
1741737601.280000,320,-7.7922,-9.7902,-12.2132,-4.5835,6.7818,1.0877,10.8965,7.7090,-12.3331,-14.1401,-9.1474,-11.8675,11.9389,-5.4412,-0.2054,-15.7579,0.0
1741737601.284000,321,-2.3876,-10.8846,-12.3064,-5.4525,5.2265,-0.9379,10.3555,5.5057,-12.0187,-14.9036,-8.2258,-10.3292,11.5214,-4.0755,-1.0992,-16.7815,0.0
1741737601.288000,322,-0.5138,-12.0303,-8.8292,-3.5714,2.8242,-2.7085,13.2187,6.0101,-8.3260,-15.6238,-9.8837,-6.1611,9.1861,-5.3414,-3.6022,-14.5765,0.0
1741737601.292000,323,-1.8693,-10.8003,-7.3032,-1.0341,4.0922,-2.9363,10.0083,4.6330,-7.5503,-14.2117,-7.6253,-6.2094,7.2188,-2.5456,-3.7992,-10.5746,0.0
1741737601.296000,324,-2.6885,-11.2528,-6.1060,4.9317,2.0282,-0.5112,6.1851,-0.4873,-4.5707,-11.4767,-11.5747,-3.8426,4.7103,-0.0973,-5.4145,-7.4610,0.0
1741737601.300000,325,1.6969,-8.7096,-4.0769,2.2004,1.0623,1.7985,4.0044,-1.2933,0.5949,-8.7071,-11.4862,-5.5798,7.7409,0.9995,-8.0696,-3.3614,0.0
1741737601.304000,326,-0.1426,-10.3415,-2.1022,3.2160,-0.3545,7.2579,1.3705,-1.2748,2.5003,-6.2245,-10.5786,-5.8351,5.4900,4.4843,-6.1745,-0.1942,0.0
1741737601.308000,327,0.7934,-11.5586,-0.5995,1.7242,2.2457,7.3734,-3.0970,-0.9205,3.4400,-4.8343,-9.6654,-3.5941,3.9071,2.6040,-7.3459,3.2795,0.0
1741737601.312000,328,-0.7599,-10.9089,-2.4021,3.1106,0.5483,7.9914,-6.8019,-5.4274,5.2527,-2.4988,-7.4051,-1.6577,-0.6533,4.8952,-6.2947,3.7443,0.0
1741737601.316000,329,0.3019,-8.1651,-3.0916,0.5353,-2.1534,5.6800,-10.2935,-7.1940,4.9030,3.4956,-4.0459,1.3756,-0.5456,4.9724,-6.9682,5.5800,0.0
1741737601.320000,330,4.5127,-7.9113,-2.1457,-2.0336,-2.5959,3.5220,-10.0729,-10.4708,7.5203,6.3281,-0.0159,1.2489,-1.2999,1.8750,-4.9183,6.8592,0.0
1741737601.324000,331,5.7177,-6.9081,0.3439,-3.9212,0.3347,2.4259,-10.5533,-13.2631,8.6927,5.1965,2.9787,1.9361,-3.6049,1.4029,-1.7734,6.5350,0.0
1741737601.328000,332,4.2812,-4.8390,1.0424,-9.6734,4.5231,-0.8616,-9.7002,-16.1503,5.7592,10.5092,6.0562,3.3507,-3.8740,0.2225,1.3639,8.5811,0.0
1741737601.332000,333,1.7004,-0.9761,2.7712,-8.4812,5.3492,-1.9603,-10.4013,-16.5634,2.1865,10.6861,7.9239,4.5166,-4.9812,0.8300,3.5503,6.5606,0.0
1741737601.336000,334,-0.1572,3.1553,4.3680,-8.4636,6.7888,-6.6053,-7.2429,-16.7005,0.5301,10.5044,4.6787,0.2237,-5.7763,-1.0806,6.2113,2.9700,0.0
1741737601.340000,335,-0.2935,6.7280,2.9496,-9.6874,6.5791,-10.2830,-6.9946,-14.2593,-1.5664,12.8667,5.0463,-1.3258,-3.1971,-4.3002,7.5317,1.5542,0.0
1741737601.344000,336,-0.9717,7.3961,-0.1829,-10.5477,6.0707,-9.8188,-5.0841,-10.0548,-4.8045,10.2177,2.3822,-2.2105,1.2340,-1.8583,10.2804,-0.1432,0.0
1741737601.348000,337,-3.3259,5.1682,-1.3606,-9.0845,3.9007,-8.8723,-3.6237,-6.4246,-4.5546,6.9242,5.1132,-2.3554,1.4106,-4.3551,6.2495,-5.2816,0.0
1741737601.352000,338,-3.2277,6.1260,-1.3439,-7.8361,4.3529,-11.7534,-2.0110,-3.7553,-7.0072,5.4061,8.4677,-1.0532,1.9477,-6.3529,6.1293,-7.3658,0.0
1741737601.356000,339,-4.9684,8.7948,-1.6255,-6.9825,0.1423,-13.5637,0.6300,-1.2215,-5.6474,2.9315,7.0515,1.6751,5.3244,-7.3829,2.4684,-8.4936,0.0
1741737601.360000,340,-1.9134,10.7914,-4.2879,-3.3709,-0.7974,-13.4464,3.4045,1.7480,-2.3541,4.9799,5.0917,2.9562,5.7279,-8.1112,0.6058,-5.5245,0.0
1741737601.364000,341,-1.0380,10.1472,-4.1211,-1.2672,-3.4668,-10.3033,4.6828,4.9525,-0.5447,3.3013,5.2633,1.0731,5.5598,-6.5030,-1.3730,-3.2129,0.0
1741737601.368000,342,-1.5442,9.9421,-1.3880,1.3450,-1.2132,-3.9401,9.2744,6.7586,2.1755,0.3982,6.4162,3.0439,7.8671,-6.1840,-2.2576,0.8248,0.0
1741737601.372000,343,0.0763,10.0375,2.2581,1.1097,-2.9218,-2.2907,9.5592,11.4475,3.9883,-0.5526,1.6905,2.6805,5.5440,-1.9615,-4.5390,2.9232,0.0
1741737601.376000,344,3.4315,9.3845,2.5152,4.5390,-4.2777,-1.0146,8.8834,13.6228,6.1188,-0.9165,2.1266,4.5176,6.9350,1.1177,-7.3815,1.8314,0.0
1741737601.380000,345,7.0030,8.0302,2.9731,3.5906,-6.0305,2.9154,6.9370,14.9837,8.4693,1.1111,1.4597,4.3019,7.4398,2.3651,-8.6344,5.4060,0.0
1741737601.384000,346,11.0618,4.1185,4.0229,2.3247,-10.5208,7.1711,6.2284,13.5517,11.4517,3.2373,3.6639,5.8407,9.8882,5.7609,-8.5404,10.4839,0.0
1741737601.388000,347,14.6884,1.1225,8.4192,-0.7264,-13.0050,10.4629,6.2967,11.9746,13.6761,4.3773,6.9974,9.3304,10.4257,6.4605,-12.2983,12.0329,0.0
1741737601.392000,348,17.6389,1.5768,11.3359,-1.4457,-11.1014,12.5984,4.3576,11.5189,13.7221,6.5946,11.7705,14.7463,4.8599,8.5029,-10.7137,14.0456,0.0
1741737601.396000,349,18.9965,0.8066,15.1404,-1.2759,-10.4901,13.3063,3.6123,9.2929,14.8444,10.9307,13.5541,18.8811,1.9534,8.5523,-10.1574,17.1891,0.0
1741737601.400000,350,18.8080,3.7966,14.4450,0.9464,-13.2102,10.4569,0.2332,7.7097,17.2180,11.0016,14.7924,18.2980,-3.4828,8.3371,-8.1878,17.9789,0.0
1741737601.404000,351,19.5155,4.6296,13.5110,0.9288,-11.2115,11.3440,-3.4494,2.6483,16.7163,14.5695,15.0852,16.4271,-5.8273,5.9360,-2.3714,16.8713,0.0
1741737601.408000,352,19.4913,4.9430,13.7158,-0.1063,-8.9636,11.0283,-3.1522,1.8689,15.4372,17.1669,16.3094,15.9008,-8.0722,5.0022,0.9920,15.9250,0.0
1741737601.412000,353,14.7243,2.7978,15.0608,-2.1844,-5.5782,12.6085,-6.5622,0.4712,10.4385,15.2096,18.6687,13.0272,-8.5998,3.7547,6.9797,12.5985,0.0
1741737601.416000,354,11.9471,2.0708,12.6973,-0.6274,0.2245,10.7463,-11.6223,1.5990,8.6958,18.2417,14.6626,12.5495,-11.6642,-0.9585,8.9715,10.8999,0.0
1741737601.420000,355,10.5146,2.4096,7.6158,1.5197,1.1080,10.1840,-12.4966,0.0711,2.4968,17.9338,14.6054,10.6656,-12.4952,1.4429,9.8100,5.4445,0.0
1741737601.424000,356,8.7898,3.7311,4.5054,2.5089,3.6586,10.0317,-14.9394,-2.8450,0.1981,14.2976,14.1060,10.7380,-12.6622,-0.2261,12.4750,3.1621,0.0
1741737601.428000,357,9.2970,5.4495,2.0562,0.7812,4.8514,9.3383,-12.4082,-4.6748,-3.2957,8.8101,10.5236,9.9206,-11.2617,-3.9423,15.4193,1.4833,0.0
1741737601.432000,358,5.7944,4.6106,4.2812,-0.1753,12.6665,9.4049,-10.8548,-4.5305,-6.2497,3.4082,7.1096,8.6711,-15.7403,-3.3770,16.7708,-0.2173,0.0
1741737601.436000,359,6.8598,6.0177,1.1709,0.0432,13.5260,10.0357,-9.3778,-4.0258,-9.7621,-0.2484,7.0175,9.5869,-13.0310,-5.3440,17.3713,-2.4853,0.0
1741737601.440000,360,3.0607,9.0514,0.5902,-0.0186,13.5062,8.1018,-8.1664,-3.4940,-6.1403,-6.1066,3.0047,8.1460,-11.4639,0.6229,16.4553,-5.5233,0.0
1741737601.444000,361,7.5218,11.6827,0.2044,1.8072,14.7907,5.8151,-5.5873,-3.1666,-6.9169,-9.5577,0.7881,4.0334,-11.4612,-0.6839,14.5422,-6.8400,0.0
1741737601.448000,362,10.4922,14.2310,2.7833,-1.5014,13.4254,3.7503,-1.4502,-1.9944,-2.0895,-11.1949,-1.4492,1.3607,-5.2939,0.2979,12.0858,-6.4383,0.0
1741737601.452000,363,7.3367,12.3512,5.9536,-2.8985,13.1870,-1.8385,1.6943,0.1987,-2.0411,-15.7083,1.0235,1.1031,-4.4819,1.7624,11.5963,-6.8837,0.0
1741737601.456000,364,7.0354,11.8905,9.7883,2.8986,11.6127,-3.0175,2.9388,7.4966,-0.7694,-14.0654,0.0795,2.5318,-2.2244,4.9529,10.3672,-5.7688,0.0
1741737601.460000,365,4.1348,14.1542,13.0367,9.3893,8.7491,-1.7145,5.3834,7.7431,5.0121,-11.2041,0.0612,2.1064,-0.1699,8.2894,4.8569,-1.6823,0.0
1741737601.464000,366,1.6608,15.4591,13.1436,14.9784,3.8257,-1.5946,9.1349,10.3949,9.1866,-8.5082,-0.9182,0.4767,0.8129,10.1835,5.4385,0.4596,0.0
1741737601.468000,367,0.2656,13.6092,13.6978,20.9439,0.7036,-0.1183,13.2028,13.1197,10.7261,-4.5278,-0.3584,-1.2678,3.4264,8.6212,5.4565,5.3612,0.0
1741737601.472000,368,-1.1896,11.9933,13.6079,20.4603,-0.0077,2.0934,13.0570,12.7142,17.3225,-3.1735,3.5436,2.8669,3.4079,11.0360,2.8880,10.9910,0.0
1741737601.476000,369,-2.0125,9.5098,14.0496,19.9960,-0.8381,4.8184,14.4327,14.4930,19.4968,-0.9473,2.3587,3.6522,4.9154,13.8838,3.8900,11.1603,0.0
1741737601.480000,370,-3.6816,9.6220,12.6021,22.5012,-0.0507,6.9629,14.5869,18.2117,20.7459,2.4328,3.8115,5.5374,7.5147,15.2378,1.0852,15.7070,0.0
1741737601.484000,371,-2.2306,9.6553,8.7961,25.2559,0.1860,8.6862,16.4107,19.8204,20.9008,7.8790,0.8428,3.9771,9.3560,16.0755,-2.0538,17.3414,0.0
1741737601.488000,372,-1.8542,5.7142,11.1098,22.0923,1.5680,13.7313,19.3996,19.1432,20.1165,12.9727,0.8877,5.8809,9.3983,17.3285,-2.2801,21.2223,0.0
1741737601.492000,373,2.7427,3.1327,12.0586,18.0745,3.5258,16.9149,21.0952,18.7786,19.3741,14.3683,4.9965,5.7447,10.5851,16.7982,-2.4252,21.8050,0.0
1741737601.496000,374,5.3081,0.8851,11.9820,18.2316,4.5264,18.9425,21.2302,21.1307,15.9556,15.0737,6.9434,10.4650,13.0046,19.0040,-3.3091,23.1238,0.0
1741737601.500000,375,14.1567,10.5420,14.5908,20.4487,7.1978,17.4785,21.6163,20.0356,10.6806,15.2906,11.8609,14.4703,11.9316,19.8810,-2.0840,18.8756,99.0
1741737601.504000,376,14.2087,8.0487,13.6176,14.8331,3.7303,17.4454,20.1358,17.1281,8.7216,17.8554,10.7901,13.2830,10.6431,18.5141,-3.9893,10.4715,0.0
1741737601.508000,377,19.0883,8.0870,12.0027,12.5813,5.6779,18.1184,17.6798,15.5469,7.2892,14.7644,11.8993,10.3884,13.2825,16.3373,-1.0771,8.5242,0.0
1741737601.512000,378,21.3147,7.8158,12.5710,10.7800,6.4608,20.1332,15.4286,12.0539,2.3492,13.4044,15.9347,8.3802,11.5794,12.2963,0.9541,4.7104,0.0
1741737601.516000,379,21.8031,8.2819,11.0432,5.8962,8.1807,19.5403,13.8535,10.6301,-0.9190,10.4647,17.5901,5.9816,9.5401,9.7194,5.1330,-0.8681,0.0
1741737601.520000,380,22.4101,11.2169,8.8466,4.0011,8.1670,18.1971,8.0051,8.1607,-7.2482,5.7280,21.3599,6.5227,4.5198,6.5537,7.8620,-5.3919,0.0
1741737601.524000,381,21.9982,12.8092,7.1814,6.0855,7.2702,15.3568,3.0471,4.1687,-10.7808,2.8601,19.2338,4.9661,1.3157,5.3428,10.5804,-10.6816,0.0
1741737601.528000,382,21.0399,13.3043,0.4684,8.7285,9.6826,14.0457,-0.1680,2.1904,-10.6357,3.0434,17.7209,1.2865,-2.0478,2.5532,10.9584,-12.9073,0.0
1741737601.532000,383,23.5583,15.4579,1.0340,10.6710,11.4502,13.7459,-2.4828,-3.1331,-14.1435,0.4134,13.1829,0.4912,-5.2769,-1.2047,15.1374,-14.4601,0.0
1741737601.536000,384,22.9934,16.1625,1.4737,14.6652,16.1858,12.9433,-7.4204,-5.5062,-15.9942,-5.9366,14.2492,0.6373,-10.4479,-4.8691,18.1071,-15.6619,0.0
1741737601.540000,385,21.5640,21.3186,1.1211,14.1608,20.0241,9.7279,-9.6520,-12.8114,-18.3092,-7.5742,11.6230,2.9281,-11.6199,-7.8639,18.3889,-17.9275,0.0
1741737601.544000,386,21.0646,25.6152,-0.4346,17.8899,21.0362,8.5728,-13.4746,-15.7533,-19.6529,-11.7817,8.9783,4.9128,-9.9375,-4.6341,17.8973,-18.1259,0.0
1741737601.548000,387,24.0884,33.0260,-4.1912,16.5709,22.9441,4.6237,-14.5037,-19.0503,-19.4413,-15.0702,6.1575,8.1226,-5.9205,-1.5364,19.0265,-16.7449,0.0
1741737601.552000,388,24.8281,37.4649,-1.9980,13.1445,22.9157,3.8929,-14.3630,-21.6065,-18.2116,-18.8818,5.5969,7.6991,-5.5081,-2.6800,14.4173,-17.2508,0.0
1741737601.556000,389,26.5966,43.7418,0.5222,10.8991,25.5343,2.4716,-11.7288,-20.5245,-18.8290,-21.5575,6.7078,13.8915,-1.2029,-2.2941,12.7983,-16.3698,0.0
1741737601.560000,390,29.6092,49.3779,2.0610,11.4659,23.5114,-0.0381,-7.2653,-18.0706,-17.4328,-24.2448,11.9655,15.8101,-2.9574,0.9998,10.1274,-14.6187,0.0
1741737601.564000,391,35.2649,58.8199,9.4731,12.8378,20.3529,-6.3277,-1.2913,-15.8639,-11.9529,-21.1756,14.6239,19.4647,1.5211,1.5766,5.9098,-12.2578,0.0
1741737601.568000,392,43.1732,66.2956,12.9885,16.1031,17.1422,-14.0077,3.3436,-12.3288,-9.1519,-18.6723,14.9790,22.5577,6.9039,3.2478,6.0234,-9.9004,0.0
1741737601.572000,393,45.7101,68.5712,18.5381,19.7657,17.1362,-16.2373,6.1461,-7.4805,-3.9500,-16.5617,18.8494,21.9188,9.5185,2.7690,2.9083,-8.3172,0.0
1741737601.576000,394,50.7775,70.2490,24.6003,25.0335,13.3795,-18.0600,12.5837,-3.8852,1.0381,-12.2700,24.4743,24.0939,13.2286,0.1660,0.4691,-3.4292,0.0
1741737601.580000,395,49.2034,72.3750,31.7127,27.8516,10.0540,-14.4904,17.2975,5.0901,3.9159,-8.6588,31.0137,25.2620,16.2337,0.2663,-2.8132,-1.6520,0.0
1741737601.584000,396,52.1344,73.3426,33.4866,32.1539,8.4308,-10.5012,17.5872,9.1812,9.3479,-7.8194,31.3198,30.0205,15.4504,2.9495,-5.7237,1.0380,0.0
1741737601.588000,397,57.7208,76.7988,32.6837,37.9277,2.9008,-5.7113,19.6697,11.0178,11.6128,-5.4122,34.2503,34.1841,21.0968,4.8435,-10.2270,3.4588,0.0
1741737601.592000,398,68.7325,77.6916,30.2406,39.1893,-2.0308,-1.9709,17.1606,12.5214,12.6051,-3.1587,36.4370,40.0892,21.6355,1.7545,-14.6660,8.4124,0.0
1741737601.596000,399,76.4073,77.4481,31.8719,36.8193,-5.3541,3.1030,16.7927,13.4257,15.7897,1.8091,42.0609,41.3307,20.7579,1.8968,-16.8203,11.8103,0.0
1741737601.600000,400,88.0679,78.4061,35.0485,37.8132,-5.6351,9.2405,14.2591,14.4268,14.0437,5.1154,46.4890,49.8723,19.2473,3.7901,-18.0367,15.4839,0.0
1741737601.604000,401,98.3458,80.7530,40.4156,42.0159,-3.6686,12.8240,17.4204,12.1070,15.2595,6.4893,48.1061,55.7546,16.3313,3.2939,-20.2076,16.0549,0.0
1741737601.608000,402,110.4720,85.7801,47.5474,45.3072,-3.5173,14.4687,15.0994,10.1037,18.7945,14.0745,51.0849,58.4213,11.7240,2.2817,-22.5425,20.6699,0.0
1741737601.612000,403,121.0066,92.9924,51.4472,49.9398,0.2620,17.0383,11.7218,4.0827,16.2101,17.2179,53.6217,64.9131,12.0740,2.6616,-21.1467,18.7225,0.0
1741737601.616000,404,131.9714,102.2822,53.0654,49.9370,2.4040,21.6227,7.2838,-1.9470,13.2493,18.3918,55.1943,68.7399,10.2460,4.7703,-20.0569,20.0899,0.0
1741737601.620000,405,135.5111,108.6168,56.2419,47.0141,5.6548,24.6426,1.3057,-3.5530,9.4280,14.7208,61.3734,70.9652,8.3556,5.5928,-16.8403,14.8058,0.0
1741737601.624000,406,137.7887,116.7319,55.4350,44.3935,5.9712,29.4059,-5.2543,-2.2755,4.2188,13.6805,63.7933,72.8997,6.9157,4.4603,-15.0852,8.5703,0.0
1741737601.628000,407,142.3084,122.6683,56.8874,42.8731,6.1870,30.6857,-9.1501,-6.7780,1.9586,10.3499,69.0991,72.4400,2.9062,4.0190,-13.0752,1.4049,0.0
1741737601.632000,408,148.6222,131.4484,56.2355,41.7473,8.7539,27.8168,-14.0569,-9.4457,-1.4613,8.7864,72.3708,71.3843,2.3828,-3.6350,-8.9430,-1.1973,0.0
1741737601.636000,409,155.8277,137.2907,56.2263,42.6549,10.8863,21.6179,-14.4075,-15.2522,-4.7760,6.1639,83.4688,70.1785,-1.5600,-9.4859,-2.3004,-6.0804,0.0
1741737601.640000,410,161.0138,145.6528,56.1492,43.2755,14.2012,17.6981,-16.3938,-16.9664,-8.9533,7.2964,85.1322,72.7080,-5.9234,-12.2786,6.5165,-8.1732,0.0
1741737601.644000,411,164.8719,150.5715,59.0892,44.8818,18.1040,11.3190,-16.1089,-16.7259,-15.0958,4.7343,87.1945,72.0601,-8.7446,-14.7459,12.0330,-12.9821,0.0
1741737601.648000,412,164.3926,160.4112,61.2405,51.6297,25.5357,10.9301,-15.7869,-17.8033,-15.7786,1.2054,85.5803,71.9201,-12.0549,-18.3605,15.5226,-17.5364,0.0
1741737601.652000,413,163.9891,169.5153,63.7521,58.5110,29.3461,8.6177,-13.7903,-15.0802,-18.7742,-3.0530,81.8801,71.0868,-12.4702,-16.8841,15.6893,-19.2475,0.0
1741737601.656000,414,162.6285,174.0660,61.8661,63.6528,34.0989,11.1410,-13.4659,-14.9149,-23.3911,-9.5629,79.0997,67.2988,-10.4582,-17.9980,19.2101,-20.8167,0.0
1741737601.660000,415,164.0210,179.0777,60.0576,65.0933,33.8746,10.7910,-13.3917,-13.2814,-25.9632,-14.6585,79.2519,72.5461,-5.7389,-15.3792,17.7886,-23.9675,0.0
1741737601.664000,416,167.1434,182.8360,55.4752,62.3801,33.4744,11.2723,-9.4734,-10.2974,-24.3923,-19.1305,77.3871,76.9466,-1.5139,-13.3215,16.5695,-24.8158,0.0
1741737601.668000,417,170.2625,186.8831,55.2862,63.5191,28.6930,10.4762,-7.5288,-6.1779,-22.1900,-24.6904,77.1614,80.2580,0.1999,-9.6607,9.2713,-24.2122,0.0
1741737601.672000,418,175.3559,189.5921,56.9830,65.8260,26.5645,8.0837,-4.1474,-1.2528,-16.0861,-24.3000,80.5675,88.7499,2.8798,-4.4871,3.8777,-21.5665,0.0
1741737601.676000,419,183.7055,193.2853,63.7966,69.5620,24.5449,8.0737,2.4037,1.1331,-10.1082,-22.6559,85.0768,89.0138,2.7764,-4.6837,-3.0256,-13.9073,0.0
1741737601.680000,420,190.7711,199.3955,73.0368,78.2323,25.3200,8.3782,8.6601,3.8061,-2.5745,-23.2088,88.0701,93.5499,5.7748,-2.3596,-5.1246,-7.7730,0.0
1741737601.684000,421,194.1485,204.2067,79.9183,82.0429,22.6095,6.5384,10.5138,4.5002,2.3273,-17.1279,90.7310,100.2999,2.7823,1.5534,-8.4699,-0.5652,0.0
1741737601.688000,422,197.0276,210.1687,85.1806,87.9567,18.0527,9.6332,10.3096,6.5169,10.0837,-13.8204,92.2226,101.2113,4.4085,6.3311,-10.5130,4.9309,0.0
1741737601.692000,423,194.1314,208.6137,87.9316,91.3953,13.8139,12.5843,10.8849,10.3719,16.0255,-8.6687,91.9083,100.3526,5.4670,14.1727,-13.9243,7.7859,0.0
1741737601.696000,424,195.4704,207.0483,89.3386,94.5142,11.6455,21.0538,6.9992,14.4803,19.5915,-1.3049,93.7375,99.0911,3.2617,15.0027,-16.7523,11.3841,0.0
1741737601.700000,425,195.1723,200.0153,90.5339,92.5073,5.3800,28.5744,4.5094,15.4969,23.1866,0.6918,99.2173,100.8521,5.4470,18.0059,-14.8047,15.4270,0.0
1741737601.704000,426,196.0681,193.8546,89.3568,88.9438,4.1606,28.3221,0.2744,14.7287,26.9285,6.1963,103.8007,104.9611,3.2541,16.3195,-16.2525,19.1991,0.0
1741737601.708000,427,201.7052,192.5406,87.0941,85.0864,0.0260,30.0567,-1.4168,10.0761,27.1665,11.7466,107.8231,108.8628,1.9463,15.4301,-17.7075,23.0437,0.0
1741737601.712000,428,203.3243,192.5866,83.6324,79.8307,2.1936,28.9132,-3.1958,3.2577,24.9218,20.9011,110.9794,113.1054,-3.1198,12.9904,-15.5415,23.2644,0.0
1741737601.716000,429,203.5741,189.4521,85.8649,78.8923,1.7199,26.2156,-1.4644,-0.1389,23.3863,25.3787,110.3196,112.5127,-8.2801,10.8590,-12.0618,25.2099,0.0
1741737601.720000,430,201.8873,191.8868,87.9393,79.7169,8.1071,25.8003,-1.6865,-1.9041,20.0671,29.3800,106.6723,110.3803,-12.4399,5.3902,-7.0120,24.1425,0.0
1741737601.724000,431,197.6970,189.7258,86.0425,79.2232,14.2790,24.5066,-1.5172,-3.9047,14.4534,25.7654,106.4337,104.9336,-12.0335,4.4164,-2.6115,19.8552,0.0
1741737601.728000,432,191.4866,190.5871,85.7411,76.9447,16.8791,26.4992,-2.6285,-5.8184,6.0567,24.1377,101.6730,101.0951,-12.4354,3.6489,0.1219,13.2169,0.0
1741737601.732000,433,185.6108,188.4417,78.8478,73.4076,22.3971,24.7569,-7.3966,-7.5100,-2.9584,20.7430,95.2718,96.4674,-8.2757,5.3133,4.5270,7.8727,0.0
1741737601.736000,434,177.4816,183.6007,72.7763,66.6551,21.5494,23.0122,-8.2678,-4.0943,-10.7278,16.9493,91.5915,90.6048,-3.7367,3.0426,4.5310,0.4426,0.0
1741737601.740000,435,172.1377,177.8560,64.7937,57.5743,22.1887,24.7191,-7.7677,-1.6963,-15.8887,13.0646,93.0037,86.8450,-3.0125,0.1753,5.8913,-10.7691,0.0
1741737601.744000,436,166.6860,172.6581,59.4366,53.4860,22.6548,22.7568,-6.7761,-2.2926,-18.3919,3.9247,90.0007,81.8488,-1.9881,-3.5501,5.7221,-15.8759,0.0
1741737601.748000,437,164.0402,165.4224,54.8176,50.2056,22.3818,18.9720,-3.8796,-1.7231,-20.4641,-4.0345,90.2578,79.5689,-4.8640,-9.6429,8.1607,-18.6606,0.0
1741737601.752000,438,160.4629,161.2257,55.3363,50.4250,22.5487,12.2091,0.1861,-1.9665,-21.2781,-8.7802,85.8702,76.0848,-4.2905,-10.3062,9.8207,-19.0141,0.0
1741737601.756000,439,156.7055,157.7627,50.0251,53.8052,20.7466,9.0624,3.0763,-3.0967,-22.2311,-13.5174,80.5893,70.6712,-6.0058,-13.9738,12.1732,-21.1728,0.0
1741737601.760000,440,152.9336,152.7351,52.1119,56.3871,23.7489,7.6186,4.6202,-0.0876,-20.0156,-14.7680,73.2492,62.5786,-8.0841,-15.7936,14.7191,-23.5426,0.0
1741737601.764000,441,141.0220,145.0816,50.8740,59.3728,23.6125,8.5312,3.5025,0.0986,-18.1982,-18.9900,65.0580,55.9578,-5.7380,-13.4820,14.8518,-21.8537,0.0
1741737601.768000,442,130.0527,137.1861,49.8735,57.8783,23.7398,9.4968,2.0586,3.4767,-13.5194,-22.9884,55.5207,51.5866,-4.6046,-10.6391,9.2462,-21.2885,0.0
1741737601.772000,443,121.4482,128.1151,48.1549,56.1832,20.0197,14.5835,0.6243,1.7748,-13.1901,-27.7963,50.4908,48.1768,-0.6678,-7.7258,5.7196,-16.6733,0.0
1741737601.776000,444,113.6474,116.7369,43.2709,54.4569,16.7363,18.1948,-3.4710,1.5131,-14.0855,-28.0139,45.7914,47.3386,-1.0341,-3.1391,2.2083,-15.8755,0.0
1741737601.780000,445,112.9268,110.3880,36.3215,50.0805,12.2470,17.6288,-4.5752,-2.1467,-4.8537,-26.9003,45.1701,50.3205,3.1210,0.6609,-0.8920,-9.5156,0.0
1741737601.784000,446,112.9054,106.6146,35.6612,46.0675,7.6166,15.5640,-4.2817,-5.3840,-1.9736,-21.9207,47.1705,52.9164,-1.0668,0.8437,-6.3651,-2.4278,0.0
1741737601.788000,447,106.7882,101.8422,36.0974,44.2219,5.4872,11.2043,-4.5055,-6.0484,4.9448,-16.4378,46.3799,55.5049,-1.0916,0.6729,-6.7346,-0.2993,0.0
1741737601.792000,448,103.1939,97.5970,39.7287,45.3216,5.1237,9.6392,-2.4582,-8.8066,9.3412,-10.6452,46.6426,55.1854,-6.4050,-0.0767,-4.8958,6.2726,0.0
1741737601.796000,449,97.5710,96.4861,43.7662,49.4391,10.4527,5.7407,-0.2156,-9.2804,12.2346,-3.3989,47.4096,54.2984,-6.4984,1.3021,-3.3368,9.1115,0.0
1741737601.800000,450,92.2386,95.1721,46.4144,51.1143,12.1535,3.8980,-2.3990,-9.0818,14.7171,3.4551,41.7761,47.2491,-6.8552,2.2914,-1.7450,14.3125,0.0
1741737601.804000,451,81.2155,92.8510,45.4314,46.0344,13.0024,6.0385,-0.7994,-8.9890,12.6317,6.5016,39.5931,44.8316,-2.9052,7.1981,0.3166,15.5260,0.0
1741737601.808000,452,73.2251,86.5409,39.2534,41.2004,8.9562,5.6992,-6.1800,-6.4049,8.3637,7.6918,35.1399,39.6626,-0.3798,6.6744,0.0455,14.1162,0.0
1741737601.812000,453,61.9389,78.4638,32.5542,33.6948,8.3319,7.8734,-7.8055,-3.5152,5.5075,6.6168,33.1095,36.2015,0.8826,8.9145,0.9955,7.3818,0.0
1741737601.816000,454,57.1382,68.6693,25.4831,29.2762,7.9862,6.7527,-3.7294,-0.5774,6.3457,7.2571,30.8775,33.9205,1.8272,7.1927,-3.0829,5.5113,0.0
1741737601.820000,455,53.5072,61.5230,22.0887,22.3261,6.4202,10.2807,-0.6029,-0.0306,4.3546,5.1103,33.5267,30.9239,3.8291,3.2191,-4.0119,5.0399,0.0
1741737601.824000,456,55.6608,55.8266,20.1635,17.3681,4.7681,1.2718,1.9142,-3.0824,2.4747,6.9067,35.4425,31.3946,3.5889,-4.7484,-3.6656,4.6812,0.0
1741737601.828000,457,54.9921,56.3765,17.7612,15.3553,2.8183,-2.8056,6.2696,-1.1193,0.6453,5.5469,35.7213,30.3515,0.2487,-6.4156,-2.3720,2.5916,0.0
1741737601.832000,458,51.9045,50.9091,17.6238,15.1733,3.2739,-5.2954,9.0854,-1.3529,-3.3881,5.5816,31.9251,26.4809,0.6337,-7.8761,-0.5117,1.0156,0.0
1741737601.836000,459,48.0075,47.9103,18.7727,15.1319,5.5862,-6.8270,10.6672,-0.3459,-2.8165,4.8155,22.3962,22.6916,1.4271,-9.6292,-1.7354,-3.3277,0.0
1741737601.840000,460,40.3006,43.5999,19.9861,17.9214,9.6419,-5.0486,11.1528,1.2943,-5.9006,2.4060,17.0837,14.3222,2.1776,-4.7324,-3.7120,-5.2615,0.0
1741737601.844000,461,33.6394,36.7868,18.3883,17.9288,8.9004,-1.2742,10.7767,6.0200,-7.6286,-1.5639,10.6937,7.9759,3.9647,-2.8054,-5.5997,-5.2326,0.0
1741737601.848000,462,25.5799,31.4607,11.8535,15.8539,4.4429,2.1808,7.3897,5.9701,-10.6579,-6.8711,5.7016,8.4326,8.9679,-2.8071,-8.5738,-7.1599,0.0
1741737601.852000,463,23.3287,26.8220,5.3639,11.6339,-0.4585,3.2417,3.9080,7.3916,-10.5383,-9.2492,3.6602,9.0312,10.3374,-1.3236,-8.2215,-9.1084,0.0
1741737601.856000,464,25.0863,21.1476,-1.4682,4.0465,-8.5312,4.6445,-0.5319,4.0559,-7.9033,-7.5422,5.2900,10.1378,8.7004,-2.2752,-11.3119,-8.3864,0.0
1741737601.860000,465,27.2330,12.5840,-1.5795,2.1389,-8.0327,3.5957,1.3353,3.2666,-3.9236,-6.8417,6.4557,11.2586,7.5442,-2.6357,-13.4641,-7.1062,0.0
1741737601.864000,466,25.6459,10.7423,0.7996,2.6287,-5.7787,3.8717,0.6087,-1.4686,-2.3103,-4.9636,7.1348,10.2950,1.9711,-7.1743,-13.8004,-5.9141,0.0
1741737601.868000,467,29.5150,9.8228,4.7559,7.8450,-3.3058,2.3035,1.9849,-3.3701,3.4294,-5.9455,7.3008,9.1041,-2.3841,-8.7275,-11.3083,-0.9841,0.0
1741737601.872000,468,25.7623,12.5193,9.5132,8.1280,-1.0255,1.6470,0.4741,-5.7104,2.3990,-3.5382,4.8280,8.0518,-3.9157,-6.7661,-6.3297,1.2607,0.0
1741737601.876000,469,24.2183,13.6164,9.2398,9.7913,3.1038,4.0400,-1.1030,-6.8604,0.7603,-0.6471,1.7439,4.6414,-3.1465,-6.4685,-1.3323,2.1158,0.0
1741737601.880000,470,18.2993,13.6940,7.7236,6.7308,3.5331,3.3425,-4.7852,-3.8768,-1.0041,0.2876,-4.3261,-1.1706,-3.6922,-0.2716,1.1877,2.9244,0.0
1741737601.884000,471,11.7474,7.6587,5.3985,1.6515,2.4678,7.4691,-6.3597,-4.2426,-3.0497,-0.0516,-7.2607,-3.0403,-2.1454,1.9890,0.6364,-4.1610,0.0
1741737601.888000,472,7.3260,-0.0771,2.4712,-2.6402,3.1501,6.7656,-8.7003,-2.3528,-4.8039,0.4438,-4.8425,-5.1916,-1.9925,2.4077,-1.2569,-5.7508,0.0
1741737601.892000,473,7.2249,-2.0309,-2.1587,-5.1811,-0.6019,4.5906,-13.2554,-4.8472,-5.3984,-0.6905,-0.9593,-4.9973,0.0678,-1.7654,-0.7985,-5.4708,0.0
1741737601.896000,474,7.2680,-1.6626,-4.1369,-7.7248,-1.9220,0.1060,-11.1471,-8.2651,-6.0675,-2.8655,4.1352,1.7677,-0.6816,-4.4231,0.8363,-6.8511,0.0
1741737601.900000,475,1.1354,-10.5090,-7.1944,-11.6461,-2.7809,-7.2858,-10.8769,-11.0187,-6.6758,-1.1609,4.0777,0.6519,-4.7069,-8.5862,3.5107,-7.5723,0.0
1741737601.904000,476,-0.1207,-4.0753,-5.6946,-10.8334,-1.3009,-9.0130,-7.4343,-15.2775,-7.0518,1.0047,3.3809,0.3582,-7.0381,-9.8581,5.2665,-7.4410,0.0
1741737601.908000,477,-1.5821,-0.8993,-1.6481,-4.7800,2.5512,-13.8468,-6.1533,-11.7734,-7.3571,-1.5167,0.6630,-2.0350,-9.2543,-10.0837,6.3505,-8.5298,0.0
1741737601.912000,478,-6.3146,6.3946,-1.6141,0.9643,4.5387,-10.3447,-4.8428,-10.3288,-6.6095,1.7502,-2.6338,-8.8432,-10.4156,-9.1835,9.5248,-8.5800,0.0
1741737601.916000,479,-12.1012,6.2155,-3.6470,4.9297,8.4281,-10.6427,-4.4322,-7.8004,-9.4581,-3.5671,-6.2050,-12.6105,-10.8506,-10.1254,7.3359,-9.1851,0.0
1741737601.920000,480,-13.7128,5.2099,-5.5628,6.7610,4.8023,-5.0440,-7.3668,-4.8061,-9.4700,-6.3463,-11.2696,-15.8919,-5.4096,-4.8580,9.2057,-9.3744,0.0
1741737601.924000,481,-13.6390,2.1536,-9.9292,-0.2752,2.9109,-2.3577,-9.6053,-3.2337,-10.6445,-9.6469,-9.0948,-13.4993,-1.0199,-2.4718,5.0370,-10.8859,0.0
1741737601.928000,482,-14.9766,-1.0790,-12.4790,-1.3432,-0.1274,-1.2196,-11.0928,-1.4559,-10.2827,-9.7990,-7.7975,-8.5721,1.6203,1.0684,0.6146,-11.2743,0.0
1741737601.932000,483,-12.9474,-2.5636,-13.5107,-3.8472,-3.4089,-4.9462,-8.3546,-0.7303,-5.0306,-9.7005,-7.1672,-3.6660,0.6734,3.4173,-4.2673,-8.6092,0.0
1741737601.936000,484,-9.3604,-0.6542,-12.8210,-5.3075,-3.8326,-4.4192,-4.4971,-1.6934,-1.4840,-10.4544,-3.4269,0.1806,-0.1730,-0.8919,-8.0900,-3.2925,0.0
1741737601.940000,485,-3.3903,5.2003,-6.3002,-4.5350,-3.9328,-6.5287,2.4101,-3.8746,3.3225,-11.3818,1.8131,3.8401,-2.8745,-0.1552,-7.4036,1.5883,0.0
1741737601.944000,486,0.8553,8.5147,0.5927,-2.3901,-4.9944,-7.8885,2.8410,-5.2670,5.4852,-5.8401,1.0310,4.3519,-3.7147,-1.8416,-6.9169,4.2276,0.0
1741737601.948000,487,1.5957,11.6828,3.6387,-0.3571,-3.2441,-8.4001,5.0519,-0.7230,6.8259,-6.0694,2.4744,3.0125,-4.3994,2.6243,-5.1549,6.7671,0.0
1741737601.952000,488,-3.2691,13.1627,5.1098,1.1260,-6.3087,-10.4733,5.1486,-0.3582,7.1964,-0.2608,-4.2806,-2.5612,-2.2259,4.5127,-5.3304,5.4880,0.0
1741737601.956000,489,-3.7076,11.3876,4.1959,1.5859,-4.7653,-8.1486,4.0693,2.7863,6.4843,-0.2598,-5.8667,-5.7135,-1.9296,6.2993,-5.6848,3.1882,0.0
1741737601.960000,490,-7.2680,6.3166,4.7545,0.0666,-9.1078,-4.9013,0.9837,7.0930,8.3928,2.3397,-3.3192,-5.8472,5.8401,5.7423,-6.4974,4.9565,0.0
1741737601.964000,491,-8.9679,-0.2697,0.5165,-0.7881,-9.5615,-0.6087,0.3673,9.7157,5.8542,4.2123,-0.0227,-3.9764,3.6256,4.4689,-8.3381,4.2887,0.0
1741737601.968000,492,-7.7662,-5.4115,-1.5560,-4.8476,-10.3254,-1.7270,0.1736,8.6611,0.7034,3.9347,3.1976,4.6971,2.7044,-0.1292,-10.5644,5.9460,0.0
1741737601.972000,493,-6.0984,-6.3354,-3.9669,-5.4343,-14.2889,-1.2322,1.4879,6.5880,1.3430,5.7967,3.2490,7.4970,1.7825,-0.9796,-8.2962,3.5298,0.0
1741737601.976000,494,-2.9795,-8.4578,-9.8802,-5.8672,-15.5714,-2.6189,0.4331,1.6213,0.5626,6.1255,3.3029,9.4584,-4.5057,-1.6531,-8.5388,3.5903,0.0
1741737601.980000,495,-0.8328,-8.0655,-8.8398,-5.3268,-14.3189,-0.7822,1.6663,0.7382,1.0037,8.7937,-1.4979,8.3127,-7.2162,-6.9911,-4.1679,3.9736,0.0
1741737601.984000,496,0.6946,-8.5068,-2.9963,-2.3812,-5.9988,1.6611,2.5618,-1.5225,-2.2575,4.9490,0.7421,1.6845,-6.1046,-8.9083,-4.9452,2.0219,0.0
1741737601.988000,497,1.6893,-6.2180,-1.8036,-3.8631,-0.3113,4.6243,3.0313,1.1167,-3.6287,2.9242,-3.7697,-1.5027,-8.0801,-9.3186,-1.3782,-0.7220,0.0
1741737601.992000,498,1.8009,-7.2833,-3.6385,-5.7883,3.0394,2.6881,-1.2777,-1.0423,-7.7993,0.8446,-4.9871,-5.4141,-6.7310,-7.9082,0.0941,-3.3411,0.0
1741737601.996000,499,1.5323,-8.4234,-6.3527,-8.1013,1.1244,0.2048,-5.5117,-2.2439,-14.2771,-1.9933,-9.4853,-6.3520,-2.8244,-3.4619,-1.9721,-9.1679,0.0
1741737602.000000,500,5.1611,-14.0472,-7.2262,-12.0303,-3.5173,3.6536,-9.9890,-1.3366,-13.1117,-6.5485,-11.8486,-5.3647,-3.1896,-5.1686,-1.1007,-10.2101,0.0
1741737602.004000,501,2.5026,-17.8305,-9.6739,-15.9039,-2.0331,5.3363,-6.8994,-3.1114,-15.1592,-8.2757,-9.5258,-5.1314,-3.0859,-4.6572,-5.0118,-14.9263,0.0
1741737602.008000,502,2.7458,-19.1137,-7.0536,-16.6863,-1.9054,3.9594,-6.7512,-4.5352,-12.5960,-13.6853,-7.7619,-4.5762,-6.0092,-7.8666,-6.6035,-11.7189,0.0
1741737602.012000,503,5.0562,-15.5177,-6.0028,-13.0975,-3.5368,-0.2521,-7.8675,-10.1373,-10.4124,-12.6051,-3.4571,-4.1684,-10.5082,-10.7999,-3.5434,-11.6997,0.0
1741737602.016000,504,5.8593,-8.0464,-5.7278,-12.2478,-2.8341,-4.4015,-11.5348,-15.3193,-8.2185,-12.8626,-2.2744,-3.3601,-10.7798,-12.6431,0.8260,-12.9717,0.0
1741737602.020000,505,4.8280,-5.4505,-4.4563,-7.4585,-4.3496,-11.1148,-14.0211,-16.3491,-4.4312,-11.2749,-3.1267,-6.4671,-14.1354,-13.5203,3.2508,-10.2284,0.0
1741737602.024000,506,2.2831,-2.1363,-2.6485,-5.1449,-0.3304,-10.5930,-13.6459,-19.2109,-5.2556,-7.6796,-7.8513,-11.1965,-14.3798,-13.4996,5.5790,-10.1467,0.0
1741737602.028000,507,-3.4853,-0.5648,2.1460,-2.9396,4.6860,-8.8536,-14.4854,-15.8686,-5.0720,-7.0163,-9.4888,-14.1708,-12.3689,-12.5408,8.8450,-8.3770,0.0
1741737602.032000,508,-9.4389,-4.4442,-0.8261,1.4192,8.7722,-6.7107,-13.6553,-11.6314,-4.5564,-7.4082,-12.6580,-15.1501,-14.7859,-9.0819,9.5690,-7.4394,0.0
1741737602.036000,509,-13.5298,-1.9508,-4.5915,4.0595,6.3089,-6.6987,-14.5104,-8.9695,-6.8124,-7.1103,-15.3331,-14.2369,-12.4909,-8.6991,7.6696,-6.2439,0.0
1741737602.040000,510,-13.0912,-0.9780,-7.4888,4.0842,2.5532,-8.2114,-13.6267,-8.3512,-5.3079,-6.6851,-12.9808,-10.0349,-6.2690,-4.9572,6.7328,-2.9708,0.0
1741737602.044000,511,-11.0473,-2.2121,-9.5990,-0.5737,2.5634,-9.1013,-10.0593,-7.3297,-4.2182,-2.8937,-11.2903,-4.8914,-1.2096,-3.1912,3.6010,-2.8104,0.0
1741737602.048000,512,-8.2228,-3.2028,-8.1948,-5.1550,1.9862,-10.3845,-4.6899,-7.8685,-2.4263,-3.9479,-8.9616,0.9643,0.6452,-2.4434,1.5387,1.0741,0.0
1741737602.052000,513,-9.5265,-0.7908,-4.3880,-2.7087,3.5039,-11.6635,-0.3428,-3.4178,-0.8603,-3.0325,-5.3254,3.1068,1.9804,-4.3228,-1.6579,0.5908,0.0
1741737602.056000,514,-5.0867,6.7342,-1.0852,-1.2767,6.0885,-11.7617,7.6016,1.1959,0.9047,-2.5329,-2.2821,0.8429,2.8764,-1.5485,-4.9998,1.3362,0.0
1741737602.060000,515,-3.6037,10.7050,2.7409,-0.1887,4.4875,-13.3054,10.8411,3.9776,4.2938,0.7281,-2.3038,-0.5136,6.5886,0.4277,-5.5270,1.9606,0.0
1741737602.064000,516,-1.0043,12.9107,3.8960,0.8366,2.2756,-12.5023,14.6741,4.9751,4.4629,2.9899,0.4404,-2.7811,9.5650,3.6187,-6.8108,5.2766,0.0
1741737602.068000,517,0.2534,9.1745,5.6551,-0.5542,-3.8025,-8.9748,17.1833,13.5975,6.7062,5.3918,-0.9754,-2.7540,13.0645,5.9559,-9.3844,2.8665,0.0
1741737602.072000,518,-3.0563,3.9376,8.3335,0.3030,-7.5924,-6.6561,15.6606,18.7303,6.8209,8.4833,-2.9890,-2.1663,13.2447,7.1200,-11.8192,4.7924,0.0
1741737602.076000,519,-3.8732,-1.1783,5.5161,2.3942,-11.3316,-5.2177,16.1022,24.5340,10.2663,6.5608,0.9256,-2.7840,12.0244,9.1252,-14.8324,3.3981,0.0
1741737602.080000,520,-3.9739,-4.1037,5.2883,3.8529,-15.7526,0.7252,14.0183,23.0897,11.6953,11.2282,5.4727,-1.5446,9.8963,7.0627,-15.5635,6.9242,0.0
1741737602.084000,521,1.4293,-9.5647,0.4611,5.9569,-20.0108,1.7499,8.0376,18.3124,8.8595,13.7116,7.4384,2.1151,8.7180,2.0655,-18.0119,6.1554,0.0
1741737602.088000,522,6.7784,-10.9236,-1.5416,1.4921,-18.2422,4.8194,6.8749,12.9313,11.5494,14.3144,10.4317,5.5141,5.4436,1.2774,-13.2292,10.7329,0.0
1741737602.092000,523,8.2721,-10.8024,1.1412,0.1938,-15.9788,7.8644,1.2723,4.9440,10.6653,13.6734,11.8509,8.8109,-1.0730,-2.4216,-12.0949,12.3270,0.0
1741737602.096000,524,8.8162,-10.0074,1.8895,0.1709,-13.0705,9.9347,-1.7193,4.2073,7.4925,16.7269,8.5185,9.0638,-6.2910,0.8393,-8.6920,12.7537,0.0
1741737602.100000,525,7.1039,-4.5202,0.2950,2.9241,-8.6109,12.7291,-8.5980,1.1333,6.5471,17.3232,6.0074,7.4494,-11.0209,0.2689,-8.8121,8.9959,0.0
1741737602.104000,526,9.9522,-3.2602,-1.1702,0.1800,-2.8058,14.3608,-7.5440,-3.5235,3.8644,16.6838,0.4795,5.7355,-14.1277,-0.5007,-5.2997,9.8548,0.0
1741737602.108000,527,13.3954,-3.8099,-0.6990,-3.0198,-3.2839,14.5308,-12.8974,-5.5142,0.9193,15.0349,3.3763,2.3206,-9.8774,-2.0728,0.4723,6.1569,0.0
1741737602.112000,528,14.0935,-2.7990,-1.9530,-8.9979,1.5422,14.2388,-14.9309,-8.5960,-6.9989,12.5747,2.8044,5.8062,-9.6879,0.1262,2.7148,3.3265,0.0
1741737602.116000,529,13.5141,-3.4087,-2.6418,-14.7032,1.7520,7.7929,-17.9540,-12.0333,-7.5935,10.7604,6.0881,9.4309,-11.0770,-1.1267,3.5586,-1.0720,0.0
1741737602.120000,530,12.4954,1.4358,-3.5402,-16.6147,3.1791,5.5494,-21.0576,-13.9112,-9.8726,6.7681,9.3078,10.0678,-12.0004,-0.7942,4.7455,-7.4393,0.0
1741737602.124000,531,9.9631,4.1110,-1.2345,-15.4709,4.5661,0.4039,-19.1597,-15.3492,-13.1586,3.2830,6.0442,7.8723,-12.6661,-3.8902,7.0630,-12.0974,0.0
1741737602.128000,532,7.7104,6.6623,-0.8650,-14.6136,5.6516,-4.0152,-17.2992,-15.7780,-10.0668,0.2905,10.6952,3.4694,-14.6303,-8.7081,11.8423,-10.5855,0.0
1741737602.132000,533,5.3984,11.6919,-1.3199,-13.4504,6.7114,-4.5114,-14.2604,-14.4918,-10.8095,-2.4047,11.5161,1.7188,-15.8779,-13.8040,16.9755,-10.3827,0.0
1741737602.136000,534,2.2173,14.7160,1.1977,-12.0617,6.1193,-9.0904,-11.5977,-12.1494,-12.3906,-6.1108,9.4173,-0.1544,-15.8967,-11.9165,19.4344,-15.9005,0.0
1741737602.140000,535,-1.5563,16.7071,-1.7997,-8.5070,7.9802,-13.7205,-11.3986,-6.0441,-13.4258,-8.1788,3.8063,-4.8618,-14.9160,-11.9442,19.5330,-14.6966,0.0
1741737602.144000,536,-3.0081,13.8612,-1.5102,-5.0898,3.5269,-14.4899,-11.1532,-3.0108,-10.7890,-7.9365,-0.2366,-8.7019,-12.2083,-10.4251,15.5688,-14.9337,0.0
1741737602.148000,537,-4.8998,9.8015,-4.3403,1.2243,3.2506,-12.2158,-6.2893,0.2668,-7.6549,-11.0165,-6.1214,-8.8286,-7.5302,-9.4528,15.1943,-13.7079,0.0
1741737602.152000,538,-4.4889,5.6660,-1.1749,2.4836,1.7703,-11.6206,-3.2599,1.9336,-4.8808,-13.5837,-3.9143,-6.9098,-4.9728,-10.2078,9.4006,-9.0470,0.0
1741737602.156000,539,-5.1768,4.5959,1.2133,5.3116,4.7325,-6.5903,-0.9158,6.2135,-1.5359,-14.4078,-1.3115,2.5496,-1.7836,-7.0490,5.8616,-4.5495,0.0
1741737602.160000,540,-2.1994,4.0124,3.7105,7.7019,0.8763,-5.6417,2.4563,5.2727,3.3931,-12.0318,-3.3431,8.4531,-2.0893,-2.1272,1.0595,1.7497,0.0
1741737602.164000,541,-1.0806,8.4626,1.4362,8.3476,-4.5088,-4.6953,4.2663,4.8844,8.6920,-9.8997,-3.1907,13.3546,-0.4693,3.5014,-4.8995,4.1680,0.0
1741737602.168000,542,2.9690,9.0549,6.2595,8.8251,-4.8200,-1.5390,6.6290,6.2117,15.5624,-6.1031,-6.0015,10.9104,1.5734,6.5970,-6.1672,11.6757,0.0
1741737602.172000,543,5.3479,9.3817,10.6770,11.9168,-7.7368,2.5564,9.9701,8.1971,21.2629,-3.0285,-2.6886,12.5289,2.6430,9.5735,-9.4912,16.0480,0.0
1741737602.176000,544,8.3994,10.7220,15.4948,10.8719,-4.9596,7.8041,11.8273,10.0277,24.0710,-0.4681,-0.1812,14.3983,3.0564,12.1725,-11.5169,19.2689,0.0
1741737602.180000,545,12.7110,13.9063,18.7819,11.6660,-9.6538,6.0386,10.2000,14.5298,26.7381,5.7433,6.9215,15.4874,6.4337,14.6222,-13.1426,25.1481,0.0
1741737602.184000,546,13.5626,12.5983,22.0463,13.9421,-9.3546,4.4786,7.8402,12.9983,29.6832,12.5889,8.5024,15.8212,5.5772,20.4609,-13.6700,23.2998,0.0
1741737602.188000,547,13.9851,9.1662,22.1194,11.8261,-11.2026,7.2889,7.3037,12.7766,25.3981,20.2809,10.5234,12.9220,6.1944,17.9854,-11.9871,24.3138,0.0
1741737602.192000,548,12.5751,6.8335,24.4511,12.3055,-10.8264,9.7609,8.0125,15.3236,27.0713,22.8124,15.1393,10.5792,4.6819,16.1432,-11.0304,22.8122,0.0
1741737602.196000,549,8.7993,4.3759,21.0356,11.6327,-9.3590,14.4255,7.3669,14.1796,25.7512,24.2911,17.7550,10.9744,2.0196,12.5355,-7.2441,21.7221,0.0
1741737602.200000,550,6.8384,2.8024,19.3381,11.5869,-7.2635,14.5800,7.0170,14.7811,19.5984,23.3088,20.6724,11.3524,0.2016,10.8341,-2.9736,17.8027,0.0
1741737602.204000,551,6.5932,2.7016,14.2532,9.9096,-5.7954,13.1723,0.9410,12.3333,14.2631,23.1224,17.9698,11.6801,-2.9478,7.7311,1.4340,16.8789,0.0
1741737602.208000,552,6.2766,4.6752,6.9661,4.8529,-5.6662,15.6224,2.6675,7.9956,8.2688,20.5119,17.5194,8.1611,-3.5346,4.5779,4.4443,10.5241,0.0
1741737602.212000,553,6.1658,0.6180,0.9096,1.3242,0.3401,10.8188,1.9546,4.7556,3.3914,19.1831,12.7213,3.2062,-1.6111,3.8048,8.6654,6.3527,0.0
1741737602.216000,554,4.6023,-0.5856,0.8416,-1.5638,7.6582,10.8310,2.1520,5.0338,-4.3515,15.2586,7.5766,3.9217,-0.2135,-0.7966,10.2156,-0.4151,0.0
1741737602.220000,555,2.9618,-1.5793,0.7197,-1.6326,13.4207,10.4879,4.0615,4.1520,-9.9261,7.3338,8.3592,2.8689,-2.5593,-2.0223,10.3705,-4.3172,0.0
1741737602.224000,556,2.1722,-1.5817,-0.0230,2.2341,15.9606,11.1749,4.5830,3.8737,-17.0463,3.4298,2.5302,0.8093,-1.3389,-1.6562,10.2228,-9.4000,0.0
1741737602.228000,557,0.6855,-0.3727,-3.6403,2.3249,17.7018,9.9239,4.3894,4.6006,-16.7079,-4.6408,-1.4657,-0.2021,0.4231,-2.0328,9.0164,-14.1556,0.0
1741737602.232000,558,1.6790,-0.0317,-5.4157,1.4330,17.1176,8.4971,1.7363,-0.0790,-21.2259,-7.0299,-3.9916,-3.0484,3.5776,2.6402,11.6203,-18.1238,0.0
1741737602.236000,559,0.6036,-1.7623,-6.3084,-0.0767,16.2336,9.9010,2.7999,3.4995,-22.7268,-14.9811,-5.4243,-5.3002,4.6857,-1.6626,12.0258,-20.6092,0.0
1741737602.240000,560,-0.8742,-2.4647,-6.7264,-3.5573,15.3801,8.3401,2.5715,0.3782,-22.2056,-19.8390,-5.6423,-7.2163,1.6512,0.7949,9.6606,-21.9447,0.0
1741737602.244000,561,-2.9981,-2.2285,-6.8511,-1.3948,14.1819,3.8725,1.6258,1.2472,-17.8344,-23.5205,-7.7756,-7.4028,-0.8059,-0.1445,6.4008,-23.7105,0.0
1741737602.248000,562,-2.5422,0.4411,-8.1607,1.3716,10.0819,3.5429,-1.5342,1.5411,-12.6376,-25.0978,-9.8155,-9.3795,0.9410,-1.2721,6.1066,-20.0561,0.0
1741737602.252000,563,-1.4440,-1.2262,-5.3963,3.6562,9.4335,0.1054,-0.8965,-2.0836,-7.5244,-24.7005,-7.8248,-10.0315,-0.8004,1.4225,5.9630,-16.6586,0.0
1741737602.256000,564,-1.8821,-1.6420,-5.4318,5.3665,8.0881,-1.2216,0.1525,-4.5260,-4.3203,-20.8022,-8.8442,-11.5603,-2.2897,1.2986,6.3568,-10.1445,0.0
1741737602.260000,565,-2.3175,-3.7779,0.1348,8.2694,9.3806,0.3502,1.6549,-4.7499,-2.8268,-19.5169,-6.2635,-9.9573,-3.3457,2.1259,6.6764,-7.7351,0.0
1741737602.264000,566,-5.2371,-5.1461,3.7282,9.3703,7.7676,-0.9217,0.3061,-1.7163,2.2225,-16.7693,-11.7099,-8.4910,-5.5129,5.6084,5.5230,-4.6422,0.0
1741737602.268000,567,-7.9453,-3.7169,4.1674,15.1324,5.9169,-1.1403,-0.7266,-2.6749,4.8687,-12.9771,-13.1283,-6.3681,-5.5665,4.7167,1.8861,0.1927,0.0
1741737602.272000,568,-8.2342,-4.0758,1.0166,14.5079,6.5856,-0.2199,-3.2174,-8.2712,6.3997,-7.5174,-12.5269,-5.8689,-4.4377,7.2409,1.6439,3.4961,0.0
1741737602.276000,569,-6.4809,-1.3320,0.4572,8.7161,7.3312,0.1114,0.1029,-8.4651,9.4033,-4.6546,-8.9974,-2.7980,3.8723,7.9687,0.4072,5.6897,0.0
1741737602.280000,570,-5.0435,-3.2161,0.7478,5.7741,6.3914,-2.1037,0.2495,-6.2466,6.8769,-0.2849,-6.1466,2.9965,3.9317,8.4446,-0.1331,9.6325,0.0
1741737602.284000,571,-7.0770,-1.2596,1.6730,1.1373,4.1826,-6.0879,2.3020,-5.9127,7.0443,4.7160,-3.6273,7.7788,4.9524,9.2629,-2.5335,7.7435,0.0
1741737602.288000,572,-6.8847,2.7492,1.7177,1.4862,5.9055,-5.4953,4.7326,-5.1543,7.7481,8.6314,-2.3581,5.1233,8.2119,10.9949,-5.1500,7.5915,0.0
1741737602.292000,573,-3.7577,4.3226,2.8693,5.9293,3.6347,-7.8363,7.1039,-1.8297,9.1263,10.8055,-2.0021,2.4703,10.1931,7.7315,-6.1793,9.2400,0.0
1741737602.296000,574,-2.5948,6.6554,3.5309,5.7701,3.6137,-8.6984,11.7934,1.2380,5.5449,13.5725,-0.6707,2.9448,11.6699,4.4026,-4.3398,9.5122,0.0
1741737602.300000,575,-3.2900,5.7650,3.0012,6.5731,2.2083,-7.6621,17.2948,4.8332,8.1206,10.9755,2.9521,2.4322,13.9719,4.3074,-3.4309,6.7926,0.0
1741737602.304000,576,-3.7138,2.9818,3.1392,4.6369,2.5064,-5.3577,15.8733,9.9128,3.3505,13.0516,5.3056,1.3281,12.2601,2.1918,-6.3151,5.3061,0.0
1741737602.308000,577,-5.0304,1.7300,2.3191,3.3159,0.7284,-4.2426,16.6769,9.7718,4.0168,11.9035,1.6254,-2.3335,16.4951,4.4717,-3.7660,-0.6861,0.0
1741737602.312000,578,-6.1022,-4.0789,0.0764,-0.7974,-2.8527,-1.3786,13.5240,11.1607,0.6253,11.1711,3.3790,-6.7372,16.2761,0.7098,-7.6165,-2.7632,0.0
1741737602.316000,579,-3.9381,-7.5134,-1.8742,-0.2759,-3.7325,0.4538,12.2237,13.2310,0.6925,9.9490,1.9339,-5.6572,14.0770,-0.9508,-7.8410,-1.1477,0.0
1741737602.320000,580,-0.4122,-10.0526,-4.0308,-5.5680,-7.1762,5.0910,11.8476,10.1553,-0.2680,4.4105,5.3419,-5.1017,14.7919,-2.8700,-7.6246,-0.2593,0.0
1741737602.324000,581,2.3220,-11.6250,-3.3774,-5.1544,-5.6621,5.8343,9.0511,10.0775,-3.6233,4.4058,4.5296,-1.2642,11.8484,-2.6384,-5.6473,-1.9765,0.0
1741737602.328000,582,4.1995,-10.0215,-5.6360,-5.7547,-4.7178,4.4234,7.7891,7.2038,-3.0918,4.6718,4.6888,-0.6098,10.2998,-3.2635,-5.5070,-2.8902,0.0
1741737602.332000,583,8.0153,-9.8163,-5.3070,-3.3861,-6.6631,2.9963,4.1253,1.8716,-3.5680,4.2661,3.1699,-3.0608,5.5126,-2.9550,-6.5838,-2.6385,0.0
1741737602.336000,584,10.1840,-9.3900,-3.1241,-3.7464,-4.9690,2.8757,3.3620,-3.7466,0.2284,2.8901,0.8009,-3.3820,2.0720,-6.1616,-3.9320,-1.7057,0.0
1741737602.340000,585,9.3728,-8.8096,-1.4761,-4.1132,-1.1421,3.3433,-1.5782,-5.0831,-3.1230,2.5517,0.9642,-2.8820,3.3059,-7.6432,-1.9521,-2.4213,0.0
1741737602.344000,586,8.9025,-7.9875,0.1977,-3.0664,1.0913,5.7093,-5.0063,-7.4295,-5.4194,0.7964,1.8896,-1.6645,1.1279,-5.6622,-2.4616,-3.9990,0.0
1741737602.348000,587,5.1950,-1.3069,-2.4562,-4.7537,0.9790,5.1525,-10.7394,-9.0703,-5.9413,-0.5138,2.7467,0.2789,0.4063,-2.2281,-1.3569,-2.3993,0.0
1741737602.352000,588,5.6878,-1.0149,-3.0718,-6.4958,-0.9865,3.9846,-15.9030,-11.9522,-6.6741,0.7280,1.3525,2.1297,-0.9959,-2.5203,0.0177,-5.4562,0.0
1741737602.356000,589,3.3657,1.5980,-5.9863,-9.2939,1.6654,3.8659,-17.2841,-11.6288,-6.7018,-1.1913,3.1240,2.7625,-2.9733,-1.2804,2.1942,-7.2361,0.0
1741737602.360000,590,3.2036,1.9198,-5.5058,-9.0246,1.8178,1.7337,-16.5486,-12.7200,-5.9266,-2.0439,3.5907,1.8961,-3.3328,-8.1655,3.6390,-6.4749,0.0
1741737602.364000,591,2.9397,4.2674,-6.8128,-8.1777,3.2624,-1.0194,-14.6926,-13.1112,-5.6554,-3.4897,5.6388,3.1843,-8.2916,-7.6907,7.3163,-7.8600,0.0
1741737602.368000,592,3.6053,6.1880,-3.9284,-10.9358,3.5061,-6.3067,-13.2729,-15.9758,-8.6388,-6.1636,8.1831,1.9912,-8.8331,-11.2991,8.6297,-6.4491,0.0
1741737602.372000,593,4.1071,8.8021,-0.6152,-7.8438,5.7846,-11.2424,-12.1643,-13.6448,-6.9650,-2.2951,5.4959,1.6043,-7.9934,-10.1857,9.9409,-6.1541,0.0
1741737602.376000,594,3.5436,10.0757,-0.7357,-6.4674,6.3232,-11.9327,-9.4150,-12.4117,-3.5218,-3.9906,3.4396,-1.6150,-7.0387,-9.6325,10.5791,-4.9625,0.0
1741737602.380000,595,0.6365,10.1785,3.9706,-7.2409,8.5827,-11.4126,-7.5187,-10.2963,-3.6140,-3.8979,0.1393,-2.2216,-4.2351,-8.6622,6.7692,-7.0938,0.0
1741737602.384000,596,-2.9645,9.2589,3.4750,-7.4631,8.0468,-12.0890,-4.1752,-8.0792,-5.4840,-6.4075,0.0607,-0.0925,-2.9527,-7.7496,4.4983,-7.2767,0.0
1741737602.388000,597,-1.5597,10.5108,3.0051,-6.6753,4.4430,-12.7968,-1.8419,-2.7557,-3.0785,-9.5490,-1.5663,1.5886,0.9538,-3.3596,0.3447,-5.6610,0.0
1741737602.392000,598,-1.2605,7.8898,3.9275,-4.1675,2.7571,-9.0237,-1.4352,3.8767,-2.1862,-9.2639,-1.7909,4.8067,1.3923,-3.1693,-1.6665,-2.0375,0.0
1741737602.396000,599,-0.8856,6.1471,3.2027,-4.1028,-4.5858,-8.7933,1.2806,3.1205,1.0788,-8.3013,-0.4741,5.8261,4.6901,-2.7796,-3.7857,0.6726,0.0
1741737602.400000,600,6.2230,4.9181,5.2912,0.3403,-8.8843,-7.9308,3.1239,6.2240,7.5188,-3.1856,1.7741,7.1312,5.1346,0.3342,-7.8732,4.7319,0.0
1741737602.404000,601,6.6344,4.8989,9.6972,3.5507,-8.4204,-8.0679,5.5427,6.3401,13.1211,-0.6422,3.3852,10.3979,6.2643,-2.7423,-9.0104,8.0635,0.0
1741737602.408000,602,9.2012,5.0941,13.4183,5.6835,-8.3159,-6.1510,5.7117,8.3478,16.6955,3.6892,5.9093,13.7108,3.2541,0.3750,-11.2297,11.5414,0.0
1741737602.412000,603,11.1449,6.1242,17.8102,9.5871,-8.8597,-2.4849,7.6046,10.6975,20.4347,6.8146,3.9950,12.6487,1.3077,2.7326,-13.1712,15.0899,0.0
1741737602.416000,604,11.1632,7.1149,18.7244,13.1519,-8.2863,1.2563,6.9738,11.1993,22.2790,10.0736,3.6352,11.6716,1.2850,7.8278,-11.4908,18.1065,0.0
1741737602.420000,605,10.4300,7.9165,19.7943,14.5782,-10.7172,5.4701,3.8830,12.9323,22.4309,12.7968,3.9790,12.0016,2.5803,8.6262,-10.1011,21.7500,0.0
1741737602.424000,606,10.7573,4.9925,16.5875,9.5643,-8.9290,12.9977,4.2855,13.3541,21.6656,14.5796,4.8712,12.0940,5.0723,9.9300,-11.3650,23.1695,0.0
1741737602.428000,607,11.7842,-0.0062,14.4678,7.7096,-11.3395,14.5716,1.7949,12.9146,21.9845,13.8775,5.3956,13.6611,7.7226,11.6799,-10.3246,20.1399,0.0
1741737602.432000,608,15.1598,0.6044,14.8052,4.7615,-10.1868,18.2136,2.3471,10.1154,20.6506,15.5702,8.0144,14.0173,2.8909,10.5379,-10.7782,18.2349,0.0
1741737602.436000,609,17.8262,0.4695,16.3417,3.9901,-8.3556,16.5554,2.6118,10.2002,19.7537,19.9028,12.0416,14.5753,0.4306,9.1922,-8.2704,17.6861,0.0
1741737602.440000,610,20.9769,2.3050,15.7527,2.3347,-4.1308,15.0903,3.5322,7.6318,15.9821,20.6223,16.7951,15.5558,2.1670,6.7973,-4.9494,16.3814,0.0
1741737602.444000,611,19.7484,0.9159,17.6922,1.3718,-2.9189,12.7932,5.2309,6.8318,10.1040,21.0713,18.9676,12.3397,-0.5144,7.1772,-0.1442,13.5060,0.0
1741737602.448000,612,16.4879,4.3273,14.9213,-2.0367,3.3650,9.6372,4.2277,3.2568,7.7483,20.4781,19.2915,10.8279,-0.7919,5.1524,5.6088,10.2867,0.0
1741737602.452000,613,13.7635,5.4618,16.7453,2.9148,6.0993,11.2682,3.8498,5.3266,4.7043,18.0649,15.8297,7.2115,-3.1855,3.2398,9.4590,5.1260,0.0
1741737602.456000,614,8.6122,6.0506,11.1263,4.9984,10.4566,11.5491,3.5115,3.4850,-1.1402,12.7122,10.7864,0.9068,-5.1951,3.5313,11.5336,-1.0016,0.0
1741737602.460000,615,4.2037,3.4362,6.8974,3.3533,7.5065,9.9026,1.6067,6.0508,-7.0751,11.3603,10.0898,-2.9642,-0.3578,2.1272,16.6888,-8.3894,0.0
1741737602.464000,616,1.9884,3.8706,1.5528,1.7616,9.5295,11.0591,-2.9190,6.8951,-9.5298,4.6445,7.8049,-4.5484,-1.4172,1.8906,15.9779,-10.1257,0.0
1741737602.468000,617,0.8464,2.6352,-2.5208,-0.8687,11.4495,12.0186,-2.1230,5.3762,-14.3607,0.7978,8.1758,-4.5791,-1.5355,-2.1807,16.7448,-13.5253,0.0
1741737602.472000,618,0.7521,2.1729,-2.3082,1.7904,10.1448,9.8418,-2.3278,5.2016,-15.6761,-4.3496,7.3684,-5.8365,-0.8315,-1.6675,14.7002,-17.6560,0.0
1741737602.476000,619,0.6697,1.6794,-5.6463,3.5144,13.4908,6.7806,-0.6241,4.2374,-12.2619,-6.1882,4.3429,-4.0703,-3.8366,-4.4422,14.9870,-17.3340,0.0
1741737602.480000,620,-2.7621,2.1810,-5.0424,6.9912,14.6680,9.0096,-0.3543,2.3592,-11.2499,-9.1549,2.5280,-3.1629,-5.9687,0.4760,15.4034,-14.1566,0.0
1741737602.484000,621,-1.4314,4.0137,-3.4933,7.9245,16.0067,7.5157,2.1929,-0.0781,-9.5310,-15.4651,1.0893,-5.4986,-5.2573,0.9374,16.1323,-12.6243,0.0
1741737602.488000,622,0.1571,9.0366,-2.8045,11.4946,18.4650,8.5041,1.5839,3.6008,-9.7006,-16.2468,-1.6274,-7.4757,-3.6498,3.5038,16.6567,-12.1017,0.0
1741737602.492000,623,-2.4107,8.7356,-1.9891,12.2736,18.0879,8.8056,1.6781,2.5452,-6.2030,-16.2178,-4.4452,-4.8834,-4.5152,7.5698,11.4791,-8.5076,0.0
1741737602.496000,624,-3.7951,9.5266,0.4357,8.7148,14.8247,6.4487,3.4797,2.1509,-4.0645,-17.5911,-7.5643,-4.4422,-1.5378,11.8549,9.0268,-6.7678,0.0
1741737602.500000,625,-4.1835,7.3276,0.3296,7.6939,11.8204,4.7571,3.8817,4.2090,-0.2605,-17.2427,-7.3932,-3.3441,1.5627,14.7306,7.2165,-6.8366,0.0
1741737602.504000,626,-2.2357,5.9631,4.7912,6.9365,9.9948,4.2071,2.8701,3.9164,3.0565,-13.4902,-2.6987,-1.4636,2.6029,15.8711,5.4646,-3.8009,0.0
1741737602.508000,627,-4.2332,7.0298,1.8231,5.2373,7.8378,2.0505,3.0830,4.9726,4.9045,-11.9719,1.0646,2.1683,3.1210,15.4534,2.3478,1.3629,0.0
1741737602.512000,628,-4.6439,6.4631,9.3443,8.1758,2.4149,-0.5392,4.9308,1.7417,9.1314,-8.0713,3.8027,3.9601,1.4427,15.0561,1.5717,5.6491,0.0
1741737602.516000,629,-6.3676,6.9798,7.3098,11.3559,2.7604,-1.5082,6.2903,2.0571,13.0533,-2.6469,6.4160,4.4569,1.2103,14.4497,0.5038,8.2100,0.0
1741737602.520000,630,-8.5340,6.0811,7.2034,12.8627,4.1254,-3.1136,8.2313,-0.4579,15.0487,2.2627,6.9878,3.4411,-0.4233,11.6150,1.1123,10.5252,0.0
1741737602.524000,631,-9.0044,4.9947,7.2852,14.1756,4.8157,-1.9779,7.1833,1.8644,13.7314,7.8485,5.6130,2.2852,-0.2725,7.8349,3.9325,11.4516,0.0
1741737602.528000,632,-10.8071,7.5342,5.1484,12.1695,3.6813,-1.4424,6.3785,4.8850,11.7747,8.4266,2.9731,1.1880,1.7704,8.7599,2.3009,11.7228,0.0
1741737602.532000,633,-10.5124,2.8953,3.2691,11.6080,4.1641,-0.5473,4.6123,5.7057,8.4484,10.4483,1.6143,1.0819,5.3680,7.9066,0.2927,10.9405,0.0
1741737602.536000,634,-10.5537,-1.6073,-0.3538,10.9072,4.0908,2.9170,7.3198,3.8384,7.4673,7.8811,-1.1283,0.4705,7.2555,7.4301,0.1380,8.6816,0.0
1741737602.540000,635,-7.3105,-3.3284,-2.1461,5.5733,3.8220,5.9136,9.6395,7.4433,2.8001,8.3071,-1.4650,2.7065,8.1928,8.8816,-2.6407,10.7485,0.0
1741737602.544000,636,-5.5137,-7.1167,-2.1198,1.2881,3.5231,8.6055,10.6082,6.7328,0.3954,6.9035,-1.7788,5.3378,8.6619,6.9398,-6.5264,3.9823,0.0
1741737602.548000,637,-1.1892,-9.3592,-2.6171,1.7324,5.6047,5.3531,10.7382,3.6618,-0.4388,4.6586,-1.0720,4.9545,10.6779,3.6360,-6.9641,4.6740,0.0
1741737602.552000,638,1.7583,-8.2189,-2.7554,-2.7421,3.2088,4.0677,11.7527,3.0121,-2.0474,1.6893,-0.7670,3.2803,11.8651,3.3900,-5.8721,1.3961,0.0
1741737602.556000,639,4.0608,-7.3813,-1.3686,-1.8612,0.9725,1.5371,12.3627,1.3712,-2.5121,0.7794,-2.5874,2.6274,9.8603,-2.0012,-5.1579,0.8348,0.0
1741737602.560000,640,4.6041,-10.0507,-1.3861,-2.8933,3.6638,1.2843,12.5622,1.7290,-3.4457,-2.4311,-2.7695,-0.0401,11.0055,-4.0550,-3.3925,-1.6001,0.0
1741737602.564000,641,5.1064,-8.1456,-0.5540,-4.8453,3.3862,1.7791,11.3870,2.5830,-4.7477,-3.6661,-5.5605,-6.8619,8.7912,-2.0196,-2.8757,-6.9078,0.0
1741737602.568000,642,1.8578,-8.8482,1.5236,-4.9830,2.0778,1.3279,5.9383,0.0718,-3.6681,-5.9636,-6.6871,-10.3017,10.1830,-3.0980,-1.0183,-9.9451,0.0
1741737602.572000,643,0.6683,-9.3706,0.5251,-3.8353,1.4693,2.0845,2.8479,0.8916,-6.0354,-6.1682,-7.0256,-12.7230,9.1359,-2.9173,-0.8325,-10.6376,0.0
1741737602.576000,644,-1.5170,-9.4065,-3.5737,-2.9553,-2.6949,2.2795,0.3071,-2.3948,-6.3621,-6.7544,-6.2467,-12.8056,7.3290,-6.3455,-0.7039,-11.0277,0.0
1741737602.580000,645,-1.3812,-14.5840,-5.4289,-2.3446,-0.1977,1.6988,-1.2991,-7.1821,-8.7162,-5.9617,-7.2615,-12.7046,3.7255,-7.3127,0.4966,-9.1331,0.0
1741737602.584000,646,-3.1228,-14.9180,-6.8010,-1.2666,0.5524,-0.3919,-2.6255,-7.9820,-6.3103,-7.2347,-5.9720,-12.7403,3.1378,-8.8659,1.5567,-10.0864,0.0
1741737602.588000,647,-5.9229,-14.7508,-8.3022,0.8274,3.8093,-0.6578,-3.4122,-7.7420,-7.2617,-5.5639,-8.5218,-10.5853,-0.1497,-9.2213,5.4956,-6.7825,0.0
1741737602.592000,648,-8.0513,-13.2046,-8.9030,1.1447,3.3836,-2.2122,-5.4172,-11.4931,-4.3274,-6.5688,-9.2354,-10.5769,-0.1237,-10.3999,3.0829,-8.6522,0.0
1741737602.596000,649,-4.2677,-8.9540,-8.9004,0.5989,6.9434,-1.2332,-4.8511,-14.3943,-8.5094,-6.8871,-12.1599,-11.3977,-1.2710,-11.0482,5.9664,-9.1510,0.0
1741737602.600000,650,-7.1800,-7.3882,-9.0303,-1.2667,10.3000,-3.5194,-3.9658,-13.1199,-8.2271,-8.5141,-12.5480,-10.1364,1.9725,-9.7419,7.1771,-7.6166,0.0
1741737602.604000,651,-7.1490,-3.8711,-10.3843,-4.3022,11.5843,-2.1679,-3.1992,-12.4040,-11.9990,-8.5131,-12.1669,-9.6860,6.0410,-4.6374,3.6394,-9.8984,0.0
1741737602.608000,652,-7.3732,-3.9920,-8.0514,-5.9553,12.1614,-3.6668,-0.7442,-8.3297,-11.7450,-11.6115,-13.5208,-9.8413,6.5185,-2.6079,0.9981,-9.9171,0.0
1741737602.612000,653,-8.8347,-3.0890,-7.2093,-7.3368,10.8546,-5.4861,0.8664,-5.6060,-9.5333,-10.5136,-11.8454,-8.5328,8.1975,-0.0176,0.8207,-11.3685,0.0
1741737602.616000,654,-5.2123,-2.0899,-7.0838,-7.2192,6.8637,-9.9336,5.4863,-3.0686,-9.0911,-11.5591,-12.8275,-7.8046,12.3139,-0.8310,-3.2752,-11.7996,0.0
1741737602.620000,655,-3.3308,-2.8923,-6.9366,-8.2975,3.0405,-10.0804,7.0073,-2.5003,-4.9842,-9.1962,-6.5956,-5.6965,13.6918,-1.4234,-2.3021,-8.7988,0.0
1741737602.624000,656,-3.1225,-3.3925,-5.1125,-5.5053,1.4828,-13.0410,7.5587,0.1719,-3.7686,-7.9533,-3.6502,-7.5028,12.4257,-4.1211,-6.3034,-11.8644,0.0
1741737602.628000,657,-5.9608,-3.9725,0.6693,-5.7381,1.1217,-12.0366,8.0102,3.3979,-0.6167,-6.0236,-0.7347,-8.3948,11.9980,-3.9239,-6.3790,-7.8350,0.0
1741737602.632000,658,-6.8159,-4.8001,-1.9806,-3.3683,-2.8018,-13.1036,4.6788,2.7866,2.1554,-4.9941,-1.4338,-7.9043,8.2861,-4.0925,-8.4534,-5.7618,0.0
1741737602.636000,659,-7.3321,-3.1666,-1.2831,-0.0552,-5.0670,-10.3684,5.1186,1.8177,5.4306,-2.2002,-1.3539,-7.6705,6.9924,-1.5206,-8.2663,-4.7553,0.0
1741737602.640000,660,-9.6146,-5.5699,-3.7325,1.0576,-6.6565,-5.7232,1.2882,3.3485,6.2350,-0.6468,-2.9366,-7.9270,4.8504,-2.5028,-8.7812,-0.3418,0.0
1741737602.644000,661,-8.1747,-7.5797,-4.2182,-1.5814,-9.8144,-4.6692,-1.1975,0.2020,6.2664,-0.9609,-5.2010,-9.0499,4.2399,-1.0697,-9.4803,0.8078,0.0
1741737602.648000,662,-5.0520,-6.9375,-4.6902,-0.2581,-10.0341,-1.7909,-3.5348,-0.0421,5.9485,1.6590,-3.1956,-4.4061,1.1929,-0.3405,-11.5139,3.2602,0.0
1741737602.652000,663,-4.3969,-10.5164,-5.8688,-0.7368,-10.8997,-1.9093,-6.3394,1.0621,6.2420,5.8855,-2.5616,-0.0743,-1.0184,1.1937,-12.4291,8.0664,0.0
1741737602.656000,664,-2.5342,-10.2404,-5.0617,-0.3295,-10.4463,-2.6201,-6.0556,-3.5332,7.7176,8.4079,-3.5043,0.9789,-2.3188,-0.1385,-14.4374,6.9283,0.0
1741737602.660000,665,1.3222,-9.8059,-2.5999,-2.8654,-9.8050,0.3495,-8.0953,-4.8843,8.5944,9.3893,-2.1532,6.6175,-2.7387,0.5701,-12.4920,9.6220,0.0
1741737602.664000,666,3.1063,-6.2932,-0.6764,-2.9040,-7.1038,0.2142,-6.0659,-8.2062,6.7343,10.4933,-1.1607,8.9735,-3.4040,-2.3765,-11.5383,11.1534,0.0
1741737602.668000,667,2.7745,-3.8528,2.3810,-4.7513,-3.4144,1.1751,-6.8387,-9.2602,4.3372,10.2811,2.1390,7.5309,-4.6441,0.5735,-10.5091,8.1456,0.0
1741737602.672000,668,2.2862,1.6398,2.0218,-8.8224,-3.0517,0.9084,-6.9361,-7.0482,1.8045,7.3775,0.7320,7.2207,-3.0129,2.1297,-10.1023,5.3982,0.0
1741737602.676000,669,-1.5765,6.0922,0.2929,-10.9409,-4.9202,-1.1086,-5.6952,-4.4302,-0.1304,6.9080,0.1473,4.5545,-1.1357,1.7270,-7.0724,1.6251,0.0
1741737602.680000,670,2.8212,6.2817,-0.8941,-15.3663,-7.4629,-3.9044,-6.2058,-4.2544,-1.3253,8.8768,1.9204,0.1436,-1.8905,-1.5954,-4.5655,-0.9201,0.0
1741737602.684000,671,2.4769,2.2180,-1.1955,-15.6554,-7.5352,-4.7522,-2.4003,-1.8684,-3.3046,8.4236,5.8218,-2.5816,-1.2558,-3.1658,-3.7399,-3.6791,0.0
1741737602.688000,672,1.2132,-1.1028,-2.0659,-15.8793,-5.3167,-7.7281,-2.8584,0.6709,-5.4193,5.3720,5.5987,-4.3068,-2.7327,-7.0081,1.4043,-5.9303,0.0
1741737602.692000,673,3.4715,-2.4366,-1.1946,-11.9506,-6.3865,-9.0759,-0.8965,0.7158,-6.6707,3.8994,7.8109,-3.3150,-4.0055,-13.6288,0.8124,-6.5284,0.0
1741737602.696000,674,1.3482,-0.5633,-3.5375,-11.4083,-4.6424,-11.6998,-1.2890,1.3939,-7.6564,3.3695,7.6105,-3.8154,-6.4621,-13.0403,3.5224,-9.7948,0.0
1741737602.700000,675,-1.6734,-3.0025,-3.0161,-5.5302,-5.1182,-10.8929,-1.2621,-1.0015,-8.8455,2.7321,0.4506,-8.2560,-5.1312,-14.6239,3.1088,-9.5310,0.0
1741737602.704000,676,-4.1958,-6.3167,-3.2273,-2.8498,-5.7563,-3.1883,-2.7589,-0.8244,-8.7220,-2.3868,1.6258,-7.3854,-8.8733,-13.6460,3.8175,-10.6731,0.0
1741737602.708000,677,-6.4217,-6.8148,-4.8452,-2.6944,-2.2100,1.9701,-2.7803,1.6579,-10.6403,-4.5516,-4.1990,-6.7937,-6.0336,-11.6310,4.4457,-11.1102,0.0
1741737602.712000,678,-7.0000,-8.1889,-6.9380,-3.1699,-2.5750,1.7188,-3.6533,2.7640,-11.3629,-8.5489,-7.1672,-7.0152,-5.8184,-9.2638,0.5657,-11.0239,0.0
1741737602.716000,679,-5.9764,-8.5681,-11.0490,-6.8058,-4.1949,4.5853,-6.6781,2.1622,-9.5033,-10.3762,-9.8127,-4.1520,-6.2488,-8.3545,0.0626,-9.7059,0.0
1741737602.720000,680,1.6535,-7.1374,-11.3577,-4.8051,-6.5124,2.8576,-8.0036,1.1472,-8.6036,-8.5823,-7.5952,-2.7136,-6.9700,-3.8220,-4.1155,-6.1075,0.0
1741737602.724000,681,6.6354,-9.1437,-8.8687,-4.3659,-5.7981,-0.2493,-6.3440,0.1150,-2.2064,-10.5979,-7.0487,0.5382,-6.5050,-4.3171,-4.3828,-4.6940,0.0
1741737602.728000,682,7.5534,-8.6675,-1.5372,-2.7499,-3.7847,3.3157,-6.8046,-3.7770,-0.4294,-8.0012,-6.3258,1.9424,-4.7684,-1.5621,-5.5305,-1.5900,0.0
1741737602.732000,683,6.1847,-6.8976,4.8261,-2.2123,-3.0549,2.3924,-5.9364,-2.1603,3.2832,-4.7515,-1.7072,2.2698,-10.1216,0.2124,-5.8417,1.7441,0.0
1741737602.736000,684,4.6614,0.2464,6.1062,1.7575,-4.2158,-0.8063,-9.1554,-6.0051,4.4638,-3.5076,0.4242,2.3336,-10.7696,0.9658,-6.9453,2.0917,0.0
1741737602.740000,685,3.1171,4.6262,4.6121,4.2530,-4.9821,0.9661,-9.5158,-5.7183,5.9766,-3.1021,-0.5712,1.2462,-12.7420,6.7273,-2.2708,2.8867,0.0
1741737602.744000,686,-1.5816,4.1597,3.1494,2.7173,-6.8374,-1.6198,-11.0156,-9.2999,8.3765,-0.1046,0.2861,-2.1343,-11.9747,4.7894,0.6156,1.9875,0.0
1741737602.748000,687,-1.5703,2.5731,0.7793,-1.2987,-5.4858,1.0850,-13.5722,-6.2301,7.7307,0.6474,2.6573,-2.1736,-11.1819,3.2750,1.2922,2.1911,0.0
1741737602.752000,688,-8.5150,1.3764,-0.2683,-3.5248,-5.5834,2.1815,-13.3014,-6.6173,5.1274,1.3331,3.7624,-5.4852,-9.2201,0.5381,2.3166,4.0260,0.0
1741737602.756000,689,-7.9122,3.3626,1.5186,-1.7716,-4.0537,-1.6688,-11.6698,-4.5044,6.2285,2.7689,3.9333,-1.2671,-11.3937,1.2703,4.7646,1.8253,0.0
1741737602.760000,690,-9.6518,4.7355,-4.2300,-1.8687,-3.1390,-5.6329,-12.0662,-6.5030,4.4939,3.3653,3.6270,0.5066,-10.3926,0.0614,3.9558,3.3427,0.0
1741737602.764000,691,-5.6033,4.8288,-4.8008,-1.2082,-2.4639,-9.7842,-7.4469,-8.1922,1.8005,4.5528,3.2780,1.8269,-8.4952,-2.6510,2.7772,5.8120,0.0
1741737602.768000,692,-4.6988,4.9198,-3.9785,0.5169,-0.3637,-8.4429,-1.6309,-6.1167,0.2229,6.0717,3.5080,3.3847,-8.2139,-2.6374,5.1560,3.8509,0.0
1741737602.772000,693,-9.0390,1.8634,-1.5863,-1.3556,5.3593,-7.2556,4.1876,-2.2008,-0.5593,5.2456,0.7248,3.3743,-7.1486,-1.6601,4.7181,1.9092,0.0
1741737602.776000,694,-12.3754,5.8194,0.7524,1.9023,5.1004,-8.9750,8.0972,3.5063,-4.9546,2.7244,-2.8659,1.6664,-4.6710,-3.0686,1.3049,-0.8364,0.0
1741737602.780000,695,-11.5756,5.7135,-2.3351,3.5002,6.6764,-5.3739,8.7129,3.2331,-3.8070,-1.4395,-5.0661,1.1866,1.0083,-0.3618,-1.3346,-4.0663,0.0
1741737602.784000,696,-9.4960,5.4113,-5.0352,1.3577,3.2716,-2.9353,7.8228,7.8374,-4.2686,-2.7771,-9.1732,-1.3782,5.0212,0.8336,-4.4367,-6.5733,0.0
1741737602.788000,697,-5.7892,0.7367,-6.8957,-1.8081,-1.2328,-1.0588,10.6478,10.3689,-5.7310,-7.5092,-6.9212,-1.1996,9.4174,2.2453,-7.2895,-5.8120,0.0
1741737602.792000,698,-3.8536,-3.3420,-6.4315,-6.3354,-3.6218,-1.4635,12.1100,12.2367,-4.2838,-8.8040,-3.2541,0.3828,10.7707,0.1485,-8.0014,-4.4695,0.0
1741737602.796000,699,1.0270,-8.3726,-4.5717,-5.9931,-7.4856,-2.2709,13.7962,15.2320,-1.6329,-8.9958,-2.8841,0.6317,9.4860,0.1698,-12.3017,-4.5721,0.0
1741737602.800000,700,1.3811,-7.3217,-1.4250,-1.2653,-8.0600,-1.6078,16.0366,16.4036,2.3706,-6.5070,-0.6232,0.6904,3.6097,1.2831,-13.7341,-3.5759,0.0
1741737602.804000,701,3.8278,-8.5048,1.9647,4.5965,-8.1913,1.4383,13.9126,12.5534,5.2518,-6.1422,-3.3974,-2.6152,2.2256,-2.0919,-14.5617,0.1018,0.0
1741737602.808000,702,8.0470,-10.7137,0.6638,4.5384,-9.6545,2.5676,10.6986,8.0947,8.9988,-0.5878,-3.0299,-4.5009,1.3640,-0.9044,-11.9964,4.9116,0.0
1741737602.812000,703,8.3231,-13.8902,6.7157,5.0290,-11.6024,4.9802,7.9298,5.4945,7.2439,-1.8996,-1.2666,-3.6880,-0.6696,-2.3046,-8.6194,4.8959,0.0
1741737602.816000,704,4.0780,-16.9052,7.2521,2.6589,-8.0372,7.8275,-0.3888,4.4514,9.5472,-1.0305,-2.9625,-3.9155,-3.6778,-0.3315,-8.2047,3.2459,0.0
1741737602.820000,705,1.9743,-18.7541,1.5667,1.2461,-7.9684,11.1038,-6.3426,-0.7953,6.1325,-0.6056,-8.1460,-5.8636,-5.1142,1.6751,-7.2491,1.9788,0.0
1741737602.824000,706,1.2940,-21.1392,-0.8352,-1.5438,-5.0373,11.3334,-9.7042,-4.3218,7.3500,-0.0517,-9.7152,-3.9488,-8.3974,2.7393,-8.2350,1.4179,0.0
1741737602.828000,707,3.8894,-20.9209,-1.8557,-4.7208,-5.5883,11.6837,-11.7621,-10.9915,3.3627,2.1077,-8.1246,-3.2000,-6.8441,-1.4978,-5.7585,0.6208,0.0
1741737602.832000,708,4.6782,-16.6693,-4.1139,-7.2049,-1.6893,9.6237,-13.3588,-14.4853,1.0711,3.5936,-3.2432,-0.5027,-8.1060,-1.1462,-0.3589,2.7193,0.0
1741737602.836000,709,5.7932,-11.7007,-3.2484,-10.3692,-0.1476,4.2731,-12.2328,-16.5872,-3.5055,5.2249,-1.6538,2.9575,-10.6404,-4.4284,1.5693,1.3943,0.0
1741737602.840000,710,2.8417,-6.4850,-3.8561,-6.9882,3.8471,-2.8068,-12.5267,-18.8375,-5.9009,5.8172,-0.2915,1.8866,-11.0282,-5.5899,4.2201,-3.4676,0.0
1741737602.844000,711,1.5895,-1.7087,-4.0352,-5.6747,6.7538,-7.8420,-12.2184,-19.0641,-6.8260,6.1772,-3.3087,-2.6630,-10.0393,-8.5791,6.7728,-9.2772,0.0
1741737602.848000,712,-2.9348,1.4395,-2.5886,-1.8086,9.0684,-8.0493,-10.4441,-18.6699,-9.5198,3.1904,-4.1929,-7.6351,-9.1867,-8.4278,9.8169,-10.4160,0.0
1741737602.852000,713,-5.9269,3.9150,-2.0013,-2.0869,15.2096,-7.6559,-9.1485,-17.0888,-11.5685,-1.6159,-4.3973,-11.4836,-8.0199,-8.7968,13.8706,-13.2354,0.0
1741737602.856000,714,-11.4474,3.7776,-4.5097,-5.7472,17.0072,-7.3966,-8.3705,-12.1077,-14.0674,-4.3704,-3.4716,-14.6884,-2.0403,-9.2939,14.0552,-14.6552,0.0
1741737602.860000,715,-11.8392,4.9694,-5.3800,-7.4363,12.8533,-8.6254,-7.6419,-7.0895,-18.5204,-8.1016,-6.2670,-11.6713,-0.9160,-5.8099,10.6294,-17.8110,0.0
1741737602.864000,716,-17.3652,5.4328,-12.5116,-8.2416,8.4246,-9.4166,-7.1060,-4.2019,-16.4411,-9.9237,-6.0409,-13.0378,4.3383,-5.0762,8.8421,-20.0571,0.0
1741737602.868000,717,-17.7172,2.3093,-16.4279,-6.7058,3.4154,-10.9965,-1.8286,1.0125,-13.7519,-12.1758,-5.6070,-13.0684,5.5888,-7.3797,3.4886,-18.9414,0.0
1741737602.872000,718,-9.3059,-0.8374,-14.0019,-4.3658,0.1127,-10.3826,3.5178,2.1847,-7.3634,-12.6137,-6.6461,-12.7875,5.2284,-7.0778,2.5468,-16.9801,0.0
1741737602.876000,719,-8.4666,0.5031,-6.9235,-3.4364,1.2457,-14.9404,9.8762,3.4037,-4.3497,-12.4956,-1.8979,-11.3502,4.2380,-9.2435,-1.0256,-10.4438,0.0
1741737602.880000,720,-5.1399,1.1135,-1.5018,1.0139,-1.0676,-12.9957,13.1648,4.4699,1.0880,-10.7690,-0.8502,-6.0555,5.9990,-5.7069,-1.8819,-5.6490,0.0
1741737602.884000,721,-3.7476,4.0153,-1.8447,4.0960,-2.7172,-14.3230,13.3449,5.9495,3.3585,-7.5329,-4.0819,-6.3158,5.0138,-1.0842,-7.5094,-3.0707,0.0
1741737602.888000,722,-3.4120,5.3593,1.2426,7.3678,-5.7201,-10.3545,12.8883,5.6634,7.9243,-3.7044,-7.9660,-3.9213,6.2852,4.3265,-10.7785,2.2908,0.0
1741737602.892000,723,-5.5821,0.3314,1.9491,6.2167,-7.9591,-6.7538,10.3389,7.0479,12.4458,-3.3413,-9.5054,-2.3619,7.9916,7.3692,-12.4631,6.8052,0.0
1741737602.896000,724,-5.3045,-2.4713,5.3943,5.5738,-9.2179,1.6409,8.6079,9.7241,10.9946,0.1594,-5.5224,-2.0424,9.5758,10.2463,-15.2319,9.1223,0.0
1741737602.900000,725,-6.4596,-5.1748,5.3465,2.2182,-9.6782,6.8081,5.2798,10.2430,12.0345,2.1067,-3.4970,2.6336,8.2221,8.7906,-17.5835,13.7305,0.0
1741737602.904000,726,-3.7874,-2.8465,-0.6469,2.0903,-16.8528,7.0130,1.4458,8.6759,13.8932,6.5744,2.5732,7.5364,5.4404,10.9264,-18.1992,13.9399,0.0
1741737602.908000,727,3.5711,-3.7145,-3.6262,-0.6096,-19.8763,3.3067,-2.0673,4.9540,17.5503,10.7691,6.6853,15.8973,2.3512,9.6308,-18.4461,14.5726,0.0
1741737602.912000,728,7.5511,-5.1146,-2.0057,0.9107,-20.9356,4.4867,-2.4089,0.5014,17.7233,19.0354,9.9259,11.7610,-0.7367,4.6810,-14.1774,18.0888,0.0
1741737602.916000,729,11.1950,-4.1112,5.6175,-3.0314,-13.9900,1.8829,-1.3566,-2.0705,17.6883,20.2947,11.6831,11.3317,-7.1941,1.7803,-9.6967,16.6209,0.0
1741737602.920000,730,8.3279,-5.3461,9.8280,-1.3185,-5.9876,3.4815,-4.4121,-2.9010,12.2749,19.2248,10.6084,8.6640,-10.4455,-1.5515,-5.6484,15.2505,0.0
1741737602.924000,731,4.1249,-1.7915,8.7600,-1.5982,-1.8665,5.2600,-8.4083,-4.7106,5.0726,18.2984,10.2782,6.3047,-11.8658,-1.1496,-1.5795,10.2489,0.0
1741737602.928000,732,1.8504,-1.1707,4.0766,-3.3547,-0.6884,6.4007,-8.1800,-8.5718,-3.7691,16.2054,6.6905,3.2640,-9.8734,0.3050,1.5111,5.1106,0.0
1741737602.932000,733,2.1647,-2.1396,-1.9229,-8.2988,-3.4222,6.2704,-14.2139,-7.8551,-7.1551,10.5601,2.1927,-1.8941,-6.7956,-1.8527,4.5142,-0.2376,0.0
1741737602.936000,734,0.9272,-7.5356,-8.4224,-16.0089,-2.1925,6.5487,-15.6590,-6.6220,-12.9546,7.4622,3.7246,-3.2084,-5.1537,-6.0210,5.3321,-6.0893,0.0
1741737602.940000,735,0.2985,-10.2257,-8.2783,-20.9444,-0.7195,3.7921,-13.7399,-8.1818,-16.1502,-1.2554,3.4320,-3.7602,-8.0376,-10.1845,4.3080,-10.8273,0.0
1741737602.944000,736,-1.5335,-12.5896,-10.0206,-22.3966,0.5307,-0.8224,-10.7595,-8.1357,-17.1834,-5.3211,3.4362,-1.8599,-10.7991,-13.8847,7.4183,-13.8350,0.0
1741737602.948000,737,0.4621,-7.1609,-9.4861,-20.0117,-0.5735,-8.1323,-12.5803,-12.5946,-17.0366,-6.1724,4.6938,-1.9549,-9.4571,-15.9763,7.2209,-16.5330,0.0
1741737602.952000,738,2.9511,-1.5398,-8.6340,-13.5642,-0.8173,-10.4402,-11.0020,-16.2697,-17.8836,-9.2535,0.2091,-3.5030,-12.6191,-19.1829,7.0272,-17.9738,0.0
1741737602.956000,739,2.0212,1.3506,-6.9069,-10.0827,4.1265,-15.3508,-9.8770,-16.9099,-16.0948,-10.3872,-1.6652,-6.9840,-11.5549,-18.2678,9.3930,-15.3200,0.0
1741737602.960000,740,-2.5438,3.0869,-4.6495,-4.8458,5.1595,-16.4681,-6.3662,-12.4090,-13.0536,-13.9754,-7.7029,-11.6031,-10.1915,-16.5366,10.7859,-17.0187,0.0
1741737602.964000,741,-9.4060,3.3835,-2.6177,-0.4473,3.8939,-11.8662,-4.6871,-7.7775,-16.4003,-19.8700,-13.8724,-13.8370,-11.7041,-12.1704,9.7393,-16.7829,0.0
1741737602.968000,742,-13.2649,1.3872,-5.7090,2.1914,4.2611,-9.5114,-7.4751,-3.7110,-13.1797,-22.6428,-17.5078,-14.0397,-6.8122,-7.7366,4.5038,-14.8865,0.0
1741737602.972000,743,-12.2452,-1.7414,-6.9028,4.0061,0.7137,-5.6726,-7.4296,0.0220,-8.2692,-20.6959,-19.0910,-14.1479,-3.0130,-6.4235,2.1089,-12.1867,0.0
1741737602.976000,744,-8.5641,0.1383,-9.4480,1.3953,-4.1469,-2.5543,-6.8918,-0.4688,-3.1375,-20.1840,-15.0036,-9.6486,0.8054,-3.2973,-0.5228,-9.8092,0.0
1741737602.980000,745,-3.4168,-4.1004,-8.5592,-2.0074,-8.0222,-2.3960,-4.9624,-0.0181,1.3592,-16.2206,-11.5445,-3.5550,2.5070,-0.6944,-5.7890,-1.1708,0.0
1741737602.984000,746,-0.5357,-2.2511,-2.3303,-1.9096,-8.3596,-5.0366,-0.5276,0.2934,9.4967,-12.8986,-4.6441,0.9994,2.1294,0.0364,-10.2241,4.4727,0.0
1741737602.988000,747,0.2742,0.1031,3.3360,4.0861,-7.2320,-6.2353,4.7121,1.1449,14.1901,-6.3095,-6.0387,4.9595,-1.4754,1.5505,-12.0893,7.6465,0.0
1741737602.992000,748,1.5747,2.6700,8.9374,9.4170,-4.6480,-6.6783,9.9106,3.4717,20.1119,-1.9576,-5.2822,1.9286,0.4835,5.0019,-12.6055,12.8333,0.0
1741737602.996000,749,2.7624,2.9331,12.9253,11.3918,-2.9857,-6.1253,12.1611,3.5077,18.5520,1.8546,-2.8612,0.3879,1.2406,4.2414,-9.5572,18.1778,0.0
1741737603.000000,750,2.1409,5.5362,13.5082,9.1744,-4.4362,-2.5128,13.6410,6.3869,18.6171,6.4786,-2.2600,-1.5336,6.2350,8.8717,-7.4361,19.7956,0.0
1741737603.004000,751,-1.8987,1.8900,12.1178,6.0353,-5.3152,-1.3043,10.3181,10.1392,14.3671,9.6436,-1.3855,0.0642,6.9805,9.4034,-4.6262,15.1766,0.0
1741737603.008000,752,-1.9492,-4.4961,11.0905,4.4519,-6.9707,0.0759,9.6423,13.1771,12.9565,12.9202,-3.3435,0.1223,9.2078,11.2244,-9.4099,12.5186,0.0
1741737603.012000,753,-6.3404,-9.4223,5.4755,2.7884,-9.4572,2.3966,5.3277,12.9000,11.5037,16.0591,2.0105,1.1135,10.1131,10.0706,-10.6736,8.3262,0.0
1741737603.016000,754,-2.9898,-14.2629,2.1996,1.5833,-12.2303,4.0371,6.8365,9.4854,11.4578,16.7384,7.5193,0.1758,8.8225,5.2563,-11.3258,6.9749,0.0
1741737603.020000,755,-0.9880,-14.6229,1.0319,0.2800,-11.2500,3.8886,4.4619,8.4592,7.2066,16.3620,12.1367,2.8208,5.9370,1.1890,-7.3029,7.7229,0.0
1741737603.024000,756,1.0662,-11.1219,1.5426,0.1421,-8.2075,4.6304,5.6152,3.2412,3.2019,15.0946,15.3913,3.5087,1.5067,-3.1004,-6.3810,7.6113,0.0
1741737603.028000,757,1.4765,-8.1959,-2.0721,0.2281,-4.7797,3.4405,2.0909,1.9790,0.7246,16.2376,10.0263,5.1665,-3.3538,-3.5498,-0.9220,6.1988,0.0
1741737603.032000,758,1.3446,-7.4600,-3.0801,0.4312,-0.4745,4.0269,-0.0197,-1.2835,-2.8788,15.9583,4.5089,-0.4295,-6.0923,-3.6544,0.9319,0.8457,0.0
1741737603.036000,759,2.5085,-5.7143,-2.6255,0.9754,4.6758,7.4488,-0.7952,-1.5956,-5.1654,10.8333,-1.2462,-6.9194,-5.3441,-1.6038,2.0289,-3.0723,0.0
1741737603.040000,760,1.0854,-8.0431,-4.9535,0.8848,7.1420,8.6226,-4.4558,-4.4714,-10.9667,5.3049,-1.4420,-9.6873,-5.8335,-1.9505,-0.8253,-7.6038,0.0
1741737603.044000,761,1.2332,-6.4050,-5.7537,-6.0362,7.9892,10.1674,-7.9020,-4.2476,-14.5571,0.1037,-5.4702,-10.3464,-3.2002,-2.1735,2.9907,-9.8239,0.0
1741737603.048000,762,-0.3019,-4.7958,-8.0903,-11.5261,7.1971,7.6914,-12.2599,-6.5185,-16.7092,-4.8490,-4.2001,-6.7116,-3.6946,-0.9304,0.1730,-11.1507,0.0
1741737603.052000,763,2.2991,-6.6160,-11.0014,-16.1818,3.5304,2.6296,-13.6133,-9.1372,-17.2411,-8.7474,-3.0383,-3.6182,-4.0032,0.3103,-1.7291,-17.7968,0.0
1741737603.056000,764,1.3245,-6.2973,-11.1063,-15.4390,3.0989,0.7874,-11.3973,-12.3780,-16.7084,-8.6796,-1.9061,-2.2086,-4.6723,-1.8121,-0.4455,-15.5702,0.0
1741737603.060000,765,1.4914,-2.2638,-9.2329,-15.1498,3.9640,-5.1836,-9.8153,-13.7046,-11.6232,-9.8350,-1.3895,-4.7175,-8.8814,-7.8436,2.6646,-15.0812,0.0
1741737603.064000,766,1.6357,0.5785,-3.6206,-13.0607,5.4400,-6.5229,-7.9840,-13.6426,-9.8023,-11.2065,2.3234,-4.4818,-11.3348,-9.7626,4.2118,-12.9050,0.0
1741737603.068000,767,-1.4414,7.8580,1.0206,-6.7465,4.7520,-11.6046,-6.2388,-11.5376,-6.9120,-9.9806,2.0883,-3.8493,-10.9930,-9.0320,8.1187,-11.0834,0.0
1741737603.072000,768,-2.6157,11.6955,0.1348,-4.6522,6.2021,-17.5863,-6.3270,-11.8312,-6.9543,-6.0308,-0.9971,-6.5232,-11.3629,-8.9269,10.6804,-10.3176,0.0
1741737603.076000,769,-4.3677,9.7401,-3.2783,-3.1111,3.5634,-15.1340,-10.3805,-6.8832,-6.5226,-3.9196,-7.1143,-8.3294,-6.6564,-4.9692,9.0750,-8.5315,0.0
1741737603.080000,770,-11.0964,6.8806,-3.9090,0.3238,3.2824,-12.9598,-7.8370,-4.2149,-7.4880,-5.1821,-8.1376,-8.1797,-3.5859,-3.8272,8.3389,-7.9527,0.0
1741737603.084000,771,-11.7248,3.5298,-5.3262,-0.0374,0.7708,-7.4891,-6.2294,-0.8131,-1.9488,-7.2225,-9.2778,-6.7539,-1.0992,-4.5102,2.6879,-3.9594,0.0
1741737603.088000,772,-11.8103,-1.6994,-5.3956,-0.5590,0.6779,-6.4742,-1.4573,4.8328,-0.9629,-6.6241,-4.2255,-3.5585,1.4900,-2.6671,-2.1425,-0.8997,0.0
1741737603.092000,773,-8.2106,-1.4970,-4.4114,-0.5255,-1.8172,-5.1001,1.4284,1.6653,1.1102,-4.7268,-2.9644,4.6872,2.9980,-2.5794,-5.2407,1.2415,0.0
1741737603.096000,774,-1.9325,-0.9567,-4.6845,-0.4500,-3.5704,-7.4481,2.1579,2.5048,5.7473,-1.7164,2.3232,8.2101,3.4078,-1.2620,-6.1833,5.8376,0.0
1741737603.100000,775,3.3609,-0.6887,-2.5626,-2.4371,-7.8037,-5.8371,5.4404,2.0348,9.8365,3.6457,1.6464,12.8668,4.8373,1.8441,-8.1301,9.6462,0.0
1741737603.104000,776,7.0320,1.6867,2.4866,-2.2455,-6.9595,-5.0672,9.6658,3.3280,13.8603,4.8680,2.6372,11.6608,2.9498,1.9558,-8.5114,13.4932,0.0
1741737603.108000,777,9.0960,2.8773,10.8504,-1.9142,-3.9489,-2.6819,11.1462,5.7737,15.0238,6.7093,5.4812,8.2981,2.9054,-0.1074,-12.1631,13.9786,0.0
1741737603.112000,778,9.1909,5.1819,15.3347,0.7969,-3.7758,-0.6605,10.4729,8.4673,14.3127,9.7718,4.5081,9.4966,3.5175,2.5531,-14.6502,16.2430,0.0
1741737603.116000,779,11.7904,3.3805,16.0830,3.7402,-6.9786,1.6565,7.6252,11.0250,15.9438,10.1653,6.1061,9.2539,5.8874,6.9505,-12.6727,12.7250,0.0
1741737603.120000,780,12.7280,2.8683,15.0696,1.8648,-11.9499,3.4770,4.8770,10.1012,15.1166,12.9825,9.2356,10.6684,7.1095,7.5672,-10.5110,14.6752,0.0
1741737603.124000,781,12.2349,-2.0926,10.8061,-0.7598,-17.7701,4.8514,0.7320,7.5319,15.2217,15.5714,9.8741,9.1166,5.5414,9.8820,-8.4502,13.4201,0.0
1741737603.128000,782,13.2728,-6.7082,8.4575,-1.8672,-18.3515,7.0585,-4.9867,7.8357,16.5297,14.0951,14.2539,10.0042,0.0629,3.6244,-8.4893,12.7808,0.0
1741737603.132000,783,12.1754,-7.0232,9.7964,-1.5714,-19.1914,7.9640,-6.9700,0.8452,17.3469,16.8347,16.5624,11.5138,-6.3730,-1.1305,-6.2276,12.7063,0.0
1741737603.136000,784,11.5456,-2.6648,10.8064,0.5140,-13.2340,8.4978,-9.7968,-0.9240,15.0518,17.7519,19.5613,11.4407,-9.9234,-3.3826,-3.5131,13.1332,0.0
1741737603.140000,785,14.1679,1.3818,11.7329,2.8071,-8.4857,6.8606,-11.5462,-6.3726,11.7847,21.5088,19.7000,11.2443,-11.3599,-7.2581,1.1978,12.3592,0.0
1741737603.144000,786,13.3964,9.9629,7.9380,2.5195,-3.8828,7.1302,-14.3455,-10.6511,8.2988,18.8725,16.0641,11.5043,-11.9760,-8.7130,7.6964,14.1603,0.0
1741737603.148000,787,9.7481,9.4287,5.8918,-0.4768,-0.3979,8.8329,-15.8396,-8.4589,5.2140,16.6235,12.1232,7.1491,-12.6741,-6.5281,11.6296,8.9815,0.0
1741737603.152000,788,6.1845,10.8403,6.1906,-0.2625,5.6301,8.2149,-13.0991,-6.9695,-2.4357,12.7605,7.2451,4.9653,-12.2187,-1.7588,12.8231,4.4499,0.0
1741737603.156000,789,2.5132,11.5170,3.1909,0.8138,10.5214,8.7684,-9.8051,-3.0670,-6.2948,10.5804,3.4983,3.7973,-8.8330,0.3005,9.5521,1.8179,0.0
1741737603.160000,790,2.3463,8.7162,2.2249,-1.6160,13.0282,6.6237,-7.5028,-2.2281,-7.9110,3.5918,4.5879,2.9059,-4.4349,-0.1373,12.8834,-3.7894,0.0
1741737603.164000,791,5.4098,12.8005,0.5674,-3.3603,12.3201,4.7105,-7.2267,0.3098,-13.1508,-1.6105,6.7288,6.7045,-0.6592,0.5143,10.2583,-5.0266,0.0
1741737603.168000,792,7.9333,13.9092,-0.3767,-4.5608,9.9618,2.8888,-2.2970,0.9721,-9.9128,-3.5762,9.0133,8.2852,4.6042,0.2845,10.3559,-5.5047,0.0
1741737603.172000,793,7.5203,15.8664,1.5831,-7.8877,8.8434,-2.7477,2.4660,3.1113,-10.2634,-7.5697,9.0065,10.8660,2.9060,-0.5951,8.1539,-8.8004,0.0
1741737603.176000,794,5.4686,13.1772,5.6885,-4.0005,7.9595,-4.0628,7.2748,5.9385,-3.8737,-9.6740,10.5853,9.3562,2.1357,-0.9661,7.5822,-9.9440,0.0
1741737603.180000,795,3.0084,13.9764,9.2382,-0.3100,8.6979,-4.6618,9.3050,10.5859,-2.1829,-11.3405,8.4354,3.9456,5.3651,0.6466,5.2529,-7.3573,0.0
1741737603.184000,796,4.5947,14.9609,10.1929,6.7065,5.2928,-2.6624,13.4279,13.2581,-0.6119,-11.3726,7.1534,-2.0482,5.4156,1.9775,5.7203,-5.0596,0.0
1741737603.188000,797,3.3222,11.1275,9.8111,9.7611,4.9616,1.3540,14.0019,19.4028,3.6044,-12.1494,5.6934,-1.8665,7.1359,2.2710,4.9650,-1.1442,0.0
1741737603.192000,798,3.8396,5.9511,9.5972,14.2981,0.4135,0.9975,11.0941,20.9383,4.6916,-9.2033,3.2096,-0.7779,4.4537,5.2987,5.1152,-1.3107,0.0
1741737603.196000,799,4.7968,-0.2601,9.7354,16.6483,-3.9202,3.4061,9.9823,20.2241,8.1987,-6.0120,-1.1636,1.8179,5.9863,9.5989,0.0065,4.2538,0.0
1741737603.200000,800,2.4676,-7.2243,6.1183,14.2397,-5.7425,8.5030,7.3545,20.5401,11.3944,-2.0403,-3.2055,2.0081,3.8708,12.2295,-2.7768,8.4124,0.0
1741737603.204000,801,2.6775,-9.9493,9.0349,17.9136,-4.6213,14.6580,5.1196,15.8843,14.4396,-1.3832,-0.0775,5.9129,1.3221,12.7172,-7.9610,13.4286,0.0
