timestamp,package_num,Fp1,Fp2,F3,F4,C3,C4,P3,P4,O1,O2,F7,F8,T3,T4,Pz,Oz,marker
1741737600.000000,0,-7.9322,6.6768,17.5065,-9.5285,9.3813,0.1547,-5.0317,-0.1710,5.1627,11.2549,3.5472,6.8002,-3.8585,3.7119,10.4794,2.7129,0.0
1741737600.004000,1,-3.9228,4.1017,10.9478,-15.1887,9.6007,-3.1648,-11.3976,-0.8787,5.3948,11.8379,-3.5510,3.3246,-4.6866,-0.0318,7.0737,2.7526,0.0
1741737600.008000,2,2.7271,-0.4232,2.1507,-15.1765,8.8778,-5.4991,-14.1133,-0.4700,4.1757,12.1371,-5.9174,5.0613,-5.3599,0.2875,7.7646,1.0542,0.0
1741737600.012000,3,9.2451,-6.5017,-4.3443,-13.9692,9.9864,0.6424,-15.1402,2.5899,2.8728,10.2226,-5.5788,3.5633,-3.5645,-2.4227,5.0539,-1.2443,0.0
1741737600.016000,4,18.9567,-5.8987,-7.2801,-15.3959,5.7752,1.3361,-9.9901,-0.5368,0.6098,10.5156,-0.0644,2.4926,-6.9915,1.3366,1.4105,-5.7999,0.0
1741737600.020000,5,20.5142,-1.1766,-2.0133,-6.8071,1.0401,3.6794,-8.0040,1.3693,-1.8305,9.2171,4.0173,0.5677,-6.1521,-3.3524,-0.8269,-2.9642,0.0
1741737600.024000,6,16.1756,7.7849,2.1907,2.4429,-5.2377,1.7752,-3.3116,-3.3868,-0.9072,4.9512,4.2911,-2.9109,-4.4821,-7.2015,-1.9145,2.9207,0.0
1741737600.028000,7,5.5571,15.4113,3.8815,10.7179,-6.0349,-7.2260,-2.9777,0.1892,-3.9694,-1.2567,0.6037,-1.6058,1.1961,-5.9469,-4.2759,-1.7307,0.0
1741737600.032000,8,-1.1058,16.8978,4.2174,13.8040,-2.2609,-9.4570,1.4706,-1.4031,-5.1024,-5.2314,1.8877,-2.4782,3.4983,-6.6144,-6.3588,-0.9226,0.0
1741737600.036000,9,-5.3899,14.5982,0.5644,10.5957,5.5738,-11.2166,7.3861,3.8551,-5.3930,-9.1184,1.0103,-3.9688,6.4020,-2.6573,-4.0936,7.8285,0.0
1741737600.040000,10,-4.1685,13.9053,1.3114,2.4413,8.7120,-6.5222,4.8221,9.2643,-2.3244,-7.9019,-3.1284,-3.8600,5.3827,1.5660,-3.0644,6.4141,0.0
1741737600.044000,11,-0.5638,7.9561,3.8360,-5.1411,11.0385,-1.2572,-0.7210,16.0110,-1.8959,-5.4090,-7.2751,-0.3187,-1.4816,2.8590,-2.7565,4.8258,0.0
1741737600.048000,12,0.8898,-1.4612,1.8546,-8.2047,6.4605,1.0059,-1.7774,15.9465,0.4055,-5.0352,-10.8025,4.2075,-3.4923,0.3313,1.3962,3.0947,0.0
1741737600.052000,13,0.6336,-9.7488,-0.7126,2.7110,5.0718,4.6962,-0.4395,12.0400,-1.2329,-5.2040,-5.6324,8.7105,5.2558,1.5963,1.0462,-0.8134,0.0
1741737600.056000,14,1.9752,-11.8453,-1.7620,5.9858,6.9383,5.3402,5.1078,8.3176,-1.9393,0.0448,1.4779,7.2343,4.3265,-0.4824,-1.5683,0.4158,0.0
1741737600.060000,15,-0.2412,-8.2333,-2.2879,8.4398,6.7726,5.7786,8.7146,4.4072,-5.9679,2.3198,6.6886,1.4760,2.8365,-1.6503,-5.3343,-0.2361,0.0
1741737600.064000,16,1.6100,-2.2021,-3.1390,10.4833,3.7128,7.2106,8.2727,-0.4996,-4.8656,3.0381,7.5075,-2.8325,4.8953,-3.1314,-4.7488,3.7865,0.0
1741737600.068000,17,1.2154,1.5770,-7.0700,15.6438,-0.0250,3.8774,9.8244,-5.6673,-3.5282,1.8589,8.5536,-5.8374,3.3639,-3.1303,-4.4230,3.4808,0.0
1741737600.072000,18,-0.5925,5.0010,-7.0261,11.4231,-1.3460,-1.9746,8.0382,-5.2266,-5.2426,-2.3613,6.7553,-4.2746,4.7515,2.3164,0.9611,5.2389,0.0
1741737600.076000,19,-3.3954,2.1257,-5.1844,8.8149,-1.7585,-5.6768,9.9351,-1.9628,-4.3956,-2.1440,5.6682,-1.5968,2.7826,7.6437,5.1638,2.8262,0.0
1741737600.080000,20,-3.9383,1.1311,5.9529,5.4139,-2.1778,-6.1780,9.0047,0.8269,-0.5386,-2.2959,1.6270,1.2904,3.2454,9.6168,6.2487,4.5863,0.0
1741737600.084000,21,-2.4817,0.9539,9.6733,1.9971,-2.6460,-2.1753,6.9509,3.8191,3.7855,1.5744,-0.3803,5.4138,-3.9532,4.1927,5.3850,3.1066,0.0
1741737600.088000,22,-5.0403,2.0363,10.9366,3.3334,-4.9742,-1.9905,3.2540,4.5638,10.6697,1.2167,-0.8234,8.1914,-6.7170,1.9438,5.6690,4.3209,0.0
1741737600.092000,23,-5.4574,2.2549,6.6701,5.4907,0.4433,-5.5880,2.3181,0.3072,11.7363,2.9490,1.3098,8.2448,-7.5552,-2.1424,2.7847,5.9613,0.0
1741737600.096000,24,-7.2924,2.4504,-0.8664,4.0674,3.6356,-8.3789,4.7689,3.1638,8.6424,3.1656,5.3978,4.4403,-1.1209,-3.6296,2.1326,7.2969,0.0
1741737600.100000,25,-2.1183,0.3288,-4.0358,-1.7098,10.7946,-7.6122,3.3758,1.6606,7.2384,4.1733,5.3231,-4.5005,2.8626,-3.6799,-2.2736,10.6878,0.0
1741737600.104000,26,3.3314,0.4823,-3.9295,-3.7245,8.9001,-7.8961,0.4988,6.0319,2.4865,1.5225,2.9546,-8.6066,7.8679,-2.6814,-3.1630,10.3972,0.0
1741737600.108000,27,5.3607,-1.7814,-4.1521,-1.5458,3.7386,-6.2395,-0.1141,6.1171,3.5445,-1.5209,-1.0012,-9.6232,6.7887,0.0576,-0.8304,11.9277,0.0
1741737600.112000,28,4.6321,-1.8031,-4.0025,2.0641,-0.8690,-8.8314,1.6086,3.8820,0.6232,-4.0105,-6.8102,-3.2921,6.3149,4.4753,-0.4319,9.1873,0.0
1741737600.116000,29,3.8187,-1.1678,-2.6549,8.3810,-4.3358,-10.1027,6.3365,1.7048,1.8501,-5.5416,-2.6831,2.8342,6.4855,3.9939,3.1201,4.2335,0.0
1741737600.120000,30,0.0226,1.8865,0.2747,12.3044,-4.8265,-4.2698,9.9703,-1.1497,3.9795,-6.3339,-1.8498,5.6629,5.8380,3.5834,3.3897,2.6826,0.0
1741737600.124000,31,-1.3202,6.3304,1.5991,13.8683,-0.2438,-0.3188,9.9086,0.3997,3.3848,-6.8706,2.0892,5.0506,4.3928,3.8246,4.3423,-2.8369,0.0
1741737600.128000,32,-2.9456,6.6536,0.4259,10.4086,4.1566,1.2037,10.0200,-1.7437,3.7860,-6.2818,4.3568,1.8999,3.1805,-0.1059,-1.0670,-3.5392,0.0
1741737600.132000,33,-1.7364,6.1154,-4.1973,6.5881,5.7620,-2.0637,5.1630,1.8234,-0.9112,-10.5236,4.3394,-1.0573,1.8909,-0.4602,-5.1434,-6.9549,0.0
1741737600.136000,34,-3.2448,-2.0665,-8.1080,-0.0307,4.7705,-3.3823,1.8805,2.4581,-3.4587,-10.0416,4.4867,-4.2269,3.4542,-1.8171,-6.2389,-7.7847,0.0
1741737600.140000,35,2.7271,-5.9302,-11.0462,-4.1887,0.6662,-2.1883,0.2552,3.9356,-7.1288,-7.8763,2.9207,-6.7893,8.0632,-1.8549,-3.1076,-6.7819,0.0
1741737600.144000,36,5.5054,-12.5204,-9.6370,-5.9993,-2.0681,-3.5289,-1.7554,3.7854,-6.4543,-3.4813,0.0937,-7.2152,5.6799,-1.2025,-2.0693,-4.2712,0.0
1741737600.148000,37,9.6478,-7.8220,-4.8444,-1.5003,-9.2982,-1.6163,0.1785,3.1115,-3.0448,-1.3076,-1.3770,-4.8330,5.9602,0.6634,-3.2991,-5.9450,0.0
1741737600.152000,38,8.0998,-8.2048,2.0469,2.8347,-12.1532,0.5002,2.8849,-1.5406,-2.2888,0.8976,-0.6692,-0.7500,3.0783,0.9122,0.8412,-5.8512,0.0
1741737600.156000,39,4.1417,-3.5324,3.0474,6.4817,-10.5065,-1.7540,4.6062,-3.6646,1.5960,3.9943,5.3658,0.0523,0.3146,1.0998,-1.0205,-9.0739,0.0
1741737600.160000,40,-0.5561,0.1824,8.3447,3.2904,-7.6610,-2.5849,4.7904,-7.0576,3.2902,2.6275,7.3454,1.0543,3.6576,-1.0189,-0.1933,-5.8267,0.0
1741737600.164000,41,-2.9636,-0.2234,10.3912,-0.0216,-4.7974,-2.5000,0.2281,-3.5155,3.4060,-0.4523,4.9667,-1.1293,1.6341,-1.3834,-1.0294,-2.7810,0.0
1741737600.168000,42,-2.2404,-0.9400,11.0643,-7.7960,-1.8509,-5.3241,-4.7393,-2.0480,5.8708,-0.2594,2.3375,-1.8680,1.8324,-2.7267,-3.9778,1.5284,0.0
1741737600.172000,43,1.9213,-5.2733,7.2970,-10.0214,0.6007,-7.1762,-7.5251,-0.3416,5.1880,-1.2379,-2.9957,1.8192,1.1042,-0.3507,-4.8168,5.0756,0.0
1741737600.176000,44,4.4034,-9.8958,3.2231,-11.2143,2.6006,-4.1593,-9.6590,1.3439,4.3007,0.0688,-6.1732,1.2435,2.5209,-2.0199,-2.5675,4.0552,0.0
1741737600.180000,45,6.0781,-12.6902,0.4093,-12.4068,-1.0229,-0.6305,-6.2047,1.2931,8.9979,2.9935,-1.6827,-0.3057,3.7411,-3.4005,-1.2379,5.6516,0.0
1741737600.184000,46,12.8939,-8.9685,1.4094,-7.1915,-3.3387,5.1120,-4.8727,-0.0586,9.4475,5.0703,1.5404,0.7234,3.5024,-0.4338,0.7601,5.0042,0.0
1741737600.188000,47,11.6630,-6.5143,5.0353,-3.5114,-1.5891,8.0965,-1.3366,1.0091,9.8842,3.7922,5.7467,1.1416,2.3734,-2.9200,-2.3741,4.2674,0.0
1741737600.192000,48,8.8433,-0.8995,10.5057,-1.4346,-3.8273,7.7321,-3.6485,-2.7510,6.1471,-0.2534,10.2773,1.3484,0.0652,-0.7988,-5.0449,4.5138,0.0
1741737600.196000,49,0.4191,0.5504,7.9498,0.7042,-3.5990,1.0392,-0.6914,-4.7754,5.5022,-1.0070,8.9464,0.5150,2.5488,-2.6757,-5.6841,3.7978,0.0
1741737600.200000,50,-5.3912,1.1683,4.3114,2.4280,-5.1894,-1.2597,3.2083,-7.6548,0.7386,-5.5262,8.4502,1.2974,-0.7907,-1.7687,-2.3480,6.0638,0.0
1741737600.204000,51,-6.0224,1.4038,3.6661,0.7114,-3.6877,-2.8835,0.8832,-5.8515,0.7815,-4.1154,-0.0782,-1.4172,1.6928,-4.0817,0.1672,3.0705,0.0
1741737600.208000,52,-2.9433,-0.9806,0.8052,-1.0248,-1.0716,-5.2432,-1.2084,-4.1785,0.5408,-3.1791,-6.4554,-4.6599,0.5811,-2.3183,-1.9284,2.3208,0.0
1741737600.212000,53,-1.0953,-3.4078,0.5835,-2.3549,-0.3477,-2.9550,-3.4540,-4.8927,-0.3628,0.4809,-6.9321,-2.1123,-5.5141,-0.6017,-2.7155,-2.5843,0.0
1741737600.216000,54,0.7051,-4.7989,1.5159,-6.1442,-0.4546,5.1809,-0.6975,-2.7966,0.3105,3.8985,-5.3297,-0.1527,-5.0670,0.4821,-3.6848,-3.3982,0.0
1741737600.220000,55,-0.0454,-3.6300,3.3451,-6.6494,-1.8144,9.0363,-1.7843,-4.0627,-2.6052,4.5313,-2.7315,1.7900,-6.9836,-1.4256,0.0588,-7.4344,0.0
1741737600.224000,56,0.3635,-3.4782,6.6978,-1.5343,-3.9939,10.5424,-0.0483,-5.3735,-1.6874,6.1276,3.6975,-1.6965,-5.5732,-3.2585,-0.9244,-7.7059,0.0
1741737600.228000,57,-1.3176,-3.6918,6.9948,-0.1875,-4.6894,4.6463,0.5327,-8.1854,-4.5274,7.9301,7.8531,-1.0832,-6.3123,-2.2649,-0.6887,-4.7486,0.0
1741737600.232000,58,-4.6660,-1.6432,4.9733,-2.6926,-3.5162,2.5418,-0.1987,-10.6896,-6.6828,7.5018,10.7066,-3.0362,-6.2269,-1.8544,-0.3918,-0.5315,0.0
1741737600.236000,59,-3.1207,-1.3032,3.7325,-0.3171,-1.7916,-5.4572,0.6674,-11.9636,-5.8711,8.3096,7.0242,-2.5580,-2.4001,-1.0697,-1.4184,-1.8618,0.0
1741737600.240000,60,-1.2663,2.2650,0.1718,-1.7581,-0.4110,-5.1998,-2.1596,-9.7919,-2.7640,7.1927,6.6617,-1.4179,0.6408,-0.6897,5.1131,-1.8857,0.0
1741737600.244000,61,2.7474,2.3379,1.0241,-2.7495,0.0916,-7.3906,-5.6897,-7.4688,-1.2226,5.2165,3.3178,0.5035,0.1985,5.3690,9.6712,-1.5625,0.0
1741737600.248000,62,7.2247,0.8732,3.6290,-2.6535,-2.1691,-5.3520,-5.0915,-3.5498,0.9483,5.4084,-0.9257,6.4033,-0.1302,8.9033,8.9000,-4.6126,0.0
1741737600.252000,63,8.9167,0.9526,2.7936,-4.4068,0.0603,-3.3815,-5.8845,-3.4958,1.0254,4.7155,-0.3567,8.2186,-7.2652,7.7272,6.2551,-5.5304,0.0
1741737600.256000,64,6.9749,3.4761,5.0101,-0.8964,0.4211,-2.2670,-3.3576,-1.5660,2.4658,3.5947,0.1549,10.8474,-11.6269,3.2080,5.6668,-2.7788,0.0
1741737600.260000,65,4.2642,6.1574,6.0027,0.9062,0.4354,-1.1082,0.5057,-3.1769,1.7159,4.1233,2.3470,10.8561,-11.9718,-4.3812,6.7511,-2.3424,0.0
1741737600.264000,66,5.0932,7.3354,2.2593,4.1847,1.8875,1.6347,-1.1341,-3.2310,1.3846,2.1169,7.8461,6.9176,-8.5232,-7.9388,2.4609,-0.4168,0.0
1741737600.268000,67,4.1159,7.4401,0.4797,4.9086,2.8487,-0.9858,-0.0025,-1.6414,-2.2221,0.2048,12.3658,0.8923,-0.5886,-9.1655,-1.9096,-0.1590,0.0
1741737600.272000,68,5.5296,6.1525,-4.8355,3.7985,6.5850,-3.0024,-0.1705,-0.4821,-4.8634,-1.0880,14.2847,-4.4817,1.8022,-3.0568,-5.9896,0.6431,0.0
1741737600.276000,69,7.9490,5.9903,-5.5417,0.3381,6.6069,-1.3678,0.2676,5.9183,-3.8832,-1.4385,13.5644,-4.4975,3.2390,0.1969,-5.2722,1.1303,0.0
1741737600.280000,70,6.0292,3.5729,1.7327,-0.3546,4.7524,-5.3202,-2.2720,8.5796,-5.4588,-5.6723,11.1729,-5.2971,4.6368,5.4010,-1.1861,2.3997,0.0
1741737600.284000,71,3.0555,5.7782,7.1864,1.2507,1.6201,-6.1810,2.6671,7.8684,-4.6660,-7.6921,5.0398,2.3991,2.0385,7.1068,6.1416,1.1738,0.0
1741737600.288000,72,-2.4213,4.2267,8.7685,3.3923,1.3370,-7.5624,3.6911,4.7177,-3.6376,-6.1564,-0.6832,7.0051,-2.5885,6.0252,4.9496,-5.7617,0.0
1741737600.292000,73,-4.3832,-0.4560,6.8904,5.8956,4.7548,-6.2451,3.7707,3.3271,-3.3112,-6.5136,-1.2546,14.2683,-6.7412,4.0284,3.4253,-7.6246,0.0
1741737600.296000,74,-5.5029,1.9675,3.8551,5.9105,10.4806,-5.1719,6.0368,1.8270,-2.9854,-4.2352,-1.7368,10.5768,-6.9963,1.3129,4.1661,-10.1440,0.0
1741737600.300000,75,-3.3640,5.6249,0.7386,1.2254,14.8064,1.5045,5.7599,1.0454,-5.1680,-4.2755,1.2155,6.2400,-2.7529,-0.1509,1.0354,-7.4603,0.0
1741737600.304000,76,1.6773,1.2477,-3.6691,-2.1726,13.7947,5.3071,2.0248,1.0557,-2.8546,-2.7683,3.1379,2.0101,0.2577,-1.4808,-2.6940,-3.2868,0.0
1741737600.308000,77,6.0101,0.3094,-5.5760,-1.1426,11.2454,5.5896,-0.5063,0.8760,-6.3600,-3.0321,5.5122,-2.8752,5.7365,2.8285,-2.2544,-4.3214,0.0
1741737600.312000,78,7.9635,-4.6147,-5.5354,-0.3777,5.3973,7.2309,2.2809,1.1098,-9.0222,-2.8688,8.7100,-1.0197,6.1373,9.6308,-0.2570,1.1420,0.0
1741737600.316000,79,9.2238,-4.7334,-2.3586,2.0510,0.1358,7.4513,5.7032,0.1889,-6.0607,-0.1666,10.1987,1.2806,7.9855,14.7984,4.4822,2.9492,0.0
1741737600.320000,80,5.4371,2.1774,3.7138,3.3142,-1.5702,6.3841,7.4031,-4.9326,-2.2331,3.7345,9.1954,6.1783,5.8969,13.0579,7.9222,3.5328,0.0
1741737600.324000,81,6.4809,7.9203,9.2104,9.0420,-4.8556,5.2335,10.0727,-5.7766,5.1538,3.5753,7.3237,12.2021,1.4656,12.5766,10.6200,1.3150,0.0
1741737600.328000,82,0.5326,14.9087,10.3774,7.0345,-2.2241,0.5526,9.4530,-6.4662,5.9743,1.3698,8.0794,14.7690,1.0085,10.4574,10.4120,-0.2634,0.0
1741737600.332000,83,-1.6598,11.5419,8.9684,5.9967,0.9670,-4.3198,6.4581,-1.9037,5.3109,-1.0350,7.6050,13.6701,-1.6554,7.8637,10.9348,-0.1798,0.0
1741737600.336000,84,-3.4746,9.2055,3.6248,-2.4783,6.9855,-6.8357,4.6873,1.2877,6.8899,-2.7949,4.6189,9.1687,-1.5984,5.9406,5.7258,-0.6541,0.0
1741737600.340000,85,0.2100,3.0799,0.8849,-9.2992,8.0314,-7.8918,-3.6620,5.2338,3.9579,1.1143,-5.2128,2.4551,-0.6362,1.1469,0.7931,0.7956,0.0
1741737600.344000,86,4.7933,0.6106,-3.0940,-12.8684,1.3853,-7.2604,-8.3876,9.2006,3.0962,0.9974,-9.7466,-0.4492,-1.4597,-3.7511,-1.6828,5.0043,0.0
1741737600.348000,87,6.9899,-3.9424,-1.3906,-7.8380,-1.3662,-3.9765,-7.1466,7.3270,1.1192,-1.2120,-11.1886,-2.4824,1.9852,-7.0092,-1.9498,4.8182,0.0
1741737600.352000,88,8.6966,-4.5370,-4.1259,-3.0773,-4.6014,1.0694,-4.0409,5.8403,-2.5321,0.8184,-5.6882,-3.0150,3.9935,-3.9981,-2.1865,3.5631,0.0
1741737600.356000,89,6.8940,-4.7545,-2.5062,1.5217,-3.8465,3.0419,-0.9040,2.7713,-2.4647,2.0229,-2.1529,-6.0937,8.9407,-1.7432,-5.2763,4.4933,0.0
1741737600.360000,90,4.8454,1.6648,3.2462,6.3904,-2.0747,6.7092,2.3799,1.2738,-2.2395,0.7256,3.9237,-5.8087,11.7805,-3.5669,-6.0080,6.4673,0.0
1741737600.364000,91,0.4991,6.2790,9.2778,6.3105,-3.2182,4.1227,4.4546,-0.1627,-1.7785,-3.1386,6.1174,-10.0827,14.7028,-1.6437,-9.0696,5.3237,0.0
1741737600.368000,92,-3.0082,8.7175,10.1499,7.6057,-0.6257,-2.5396,0.4127,-0.3473,-3.1008,-10.3898,3.7826,-6.7595,14.4272,-1.9875,-6.2265,5.1039,0.0
1741737600.372000,93,-10.6427,3.0065,5.5316,6.0766,2.7749,-10.1930,-0.7451,0.4178,-4.1723,-11.6949,-3.0452,-3.6460,12.9473,3.6603,-3.8348,1.9672,0.0
1741737600.376000,94,-9.1984,-6.6674,3.5955,-0.3630,4.6398,-14.4211,-1.6516,2.5586,-3.5094,-13.9694,-10.6848,-1.8344,11.2258,3.3751,-0.9346,0.5521,0.0
1741737600.380000,95,-3.3211,-11.4939,-3.7203,-7.4910,7.7180,-8.3162,-3.8684,4.1074,-4.2454,-10.8320,-15.4276,-1.8499,6.9506,2.8453,0.1808,-1.3685,0.0
1741737600.384000,96,3.8901,-12.5095,-6.6737,-6.8912,4.9868,-2.5503,-4.7932,5.3179,0.2089,-4.9013,-17.6334,0.5595,4.3549,-1.2983,-1.1261,-3.7228,0.0
1741737600.388000,97,7.0775,-12.2357,-8.9834,-1.8790,1.1090,8.2793,-2.3259,5.2359,2.9136,-1.1980,-17.2776,-1.1722,2.1416,-5.8896,-2.9237,-6.3173,0.0
1741737600.392000,98,6.9150,-11.0878,-9.6729,3.2989,-4.9936,10.5818,0.4562,-0.9082,3.0830,-0.8955,-6.3366,0.0655,2.6293,-5.9625,-8.9024,-7.1127,0.0
1741737600.396000,99,2.5421,-8.4682,-6.3966,7.4558,-4.1614,12.2328,4.1910,-3.6628,1.4896,-2.1518,3.3383,-3.1723,2.4187,-4.2453,-11.5094,-2.8838,0.0
1741737600.400000,100,-2.0052,-6.8046,-2.9676,7.2371,-6.3912,10.8926,6.8204,-4.3062,-0.5324,-1.4011,12.0901,-10.1035,3.8314,-6.9347,-10.6583,0.7591,0.0
1741737600.404000,101,-5.8217,-0.8163,-0.2485,11.5960,-5.3396,5.1708,5.8106,-3.7612,-1.6204,-0.3090,10.0423,-12.5297,4.5148,-5.3661,-6.4987,6.3443,0.0
1741737600.408000,102,-10.3621,2.1467,1.8063,7.7184,-10.3605,-2.1461,3.3595,-7.0057,4.3069,-3.3049,4.9189,-8.9930,8.4272,-4.6073,-4.8407,9.9800,0.0
1741737600.412000,103,-12.0951,-0.9950,2.0610,6.0444,-9.6573,-8.7763,1.2550,-3.7440,3.6028,-4.9353,3.3033,-5.4367,2.8937,-0.5802,0.8784,9.9166,0.0
1741737600.416000,104,-13.9192,-2.4865,4.4465,0.5539,-3.7042,-13.8109,0.7458,1.3407,8.6118,-0.8477,-2.3754,-2.2369,4.0521,3.7949,3.0873,5.1244,0.0
1741737600.420000,105,-10.7785,-8.8693,2.8766,-2.8584,-1.4506,-11.7025,-2.8768,3.3863,12.4006,1.8559,-8.4985,1.4338,-1.7285,2.7837,6.1946,5.0718,0.0
1741737600.424000,106,-7.3364,-6.9953,7.7051,-8.3863,0.1560,-6.1178,-4.9780,8.2844,14.6203,4.6122,-13.4520,2.6537,-7.1478,-3.2253,2.9533,2.9677,0.0
1741737600.428000,107,-6.4367,-6.9198,6.1254,-6.7894,-0.5127,-5.5302,-5.6625,4.5482,12.6232,6.5906,-14.0707,3.8582,-12.2847,-7.9716,-1.1046,1.4525,0.0
1741737600.432000,108,-6.7779,-10.0588,0.8041,-3.1727,0.9234,-2.9263,-5.0551,-0.1285,7.9645,3.1313,-12.3135,1.2326,-11.8284,-11.9429,-5.8779,2.0272,0.0
1741737600.436000,109,-4.4980,-6.0504,-10.1527,-1.0538,0.0254,-6.7934,-3.7759,-5.2667,5.5031,1.4063,-4.9427,-6.3097,-4.4955,-14.7844,-9.0760,5.2262,0.0
1741737600.440000,110,-4.5298,-7.8367,-12.7676,1.8558,3.4019,-2.5798,-0.9257,-8.0664,-1.2915,1.5856,1.6539,-15.3371,3.8399,-13.2902,-8.6725,6.3760,0.0
1741737600.444000,111,1.8354,-3.2578,-12.1178,1.4711,-3.3619,0.0346,-1.3118,-3.5185,-3.8430,-0.7414,2.5822,-20.3963,9.3250,-9.7956,-8.1160,11.6553,0.0
1741737600.448000,112,1.3265,2.1646,-8.8930,5.7960,-4.8237,0.2557,0.7501,-5.8903,-1.5539,-5.1135,3.3186,-20.2638,12.1090,-5.2101,-4.5336,10.9303,0.0
1741737600.452000,113,-0.5416,3.6151,-3.2656,9.3994,-10.5879,-3.7797,1.1639,-6.7177,-1.3297,-6.8566,2.6624,-11.1676,8.8074,3.0772,0.7645,5.8267,0.0
1741737600.456000,114,-6.9256,1.5913,1.3966,11.6975,-8.3643,-9.2943,4.6801,-5.5315,0.3292,-6.5421,2.5555,-2.0842,3.5476,6.2519,3.3737,0.1423,0.0
1741737600.460000,115,-13.6395,1.7579,0.2509,8.0210,-5.1215,-12.0065,5.2129,-4.3007,1.2042,-7.8576,1.6936,5.8468,-1.0062,6.7010,5.2304,-5.7210,0.0
1741737600.464000,116,-15.4584,2.5448,2.0144,4.8763,2.0839,-11.3816,4.0084,-3.0262,2.7575,-5.3753,1.2963,7.1595,-4.8621,0.9448,8.0730,-8.1227,0.0
1741737600.468000,117,-10.7895,1.7529,-4.3484,-0.2461,3.5004,-9.9670,-0.2866,-1.9360,1.9615,-5.0916,-3.3673,5.3181,-8.1454,-5.4273,1.2011,-11.4987,0.0
1741737600.472000,118,-6.0980,-0.6621,-11.6278,-0.5064,8.2693,-9.5405,-1.2409,-3.5586,-1.0858,-1.7591,-3.9290,4.5817,-9.3187,-11.1069,-4.0032,-11.7977,0.0
1741737600.476000,119,-3.5570,-7.2410,-22.0388,-1.8372,4.3191,-10.0301,-2.7688,-1.1290,-4.9229,-3.9842,-2.4601,-1.3871,-5.2277,-8.1937,-7.5914,-10.8594,0.0
1741737600.480000,120,4.5029,-10.5970,-22.2353,-4.5571,2.1494,-6.8567,-1.8732,1.1506,-9.6486,-1.7684,0.0846,-9.4290,0.8683,-8.9664,-7.3486,-9.5376,0.0
1741737600.484000,121,9.1329,-8.8443,-17.7151,-2.7280,-4.8901,-2.0835,-2.1584,2.7896,-8.5976,0.9873,4.3612,-13.2586,3.2289,-8.0115,-7.9045,-7.9322,0.0
1741737600.488000,122,10.1116,-4.7517,-4.4234,1.5626,-9.4873,0.1921,-1.2895,0.0533,-8.2708,1.1887,6.8768,-11.4433,2.5107,-4.7705,-5.7155,-3.6492,0.0
1741737600.492000,123,3.3491,3.1842,1.3867,5.8410,-13.9666,-0.4036,-0.7074,-2.9435,-3.2353,-5.2925,5.9266,-5.3382,-0.3573,0.0233,-1.4332,-5.0002,0.0
1741737600.496000,124,-5.2153,3.9386,6.8304,9.0979,-10.3561,-5.5082,3.9060,-6.4304,-1.4830,-2.2058,11.4163,1.6314,-1.8324,2.1204,2.0113,-2.8690,0.0
1741737600.500000,125,-10.9411,6.8217,11.5838,6.1727,-4.4333,-11.4364,2.4961,-4.2005,-1.1610,-7.4947,15.0961,6.9757,1.7876,1.4232,6.9225,-1.8279,0.0
1741737600.504000,126,-9.9535,8.9957,10.3206,-2.0926,6.1483,-12.1156,0.2232,-2.7548,2.5589,-6.4422,11.1649,8.9384,1.1029,1.9791,5.7859,-0.1389,0.0
1741737600.508000,127,-6.1549,3.2604,8.4795,-8.0947,8.1694,-10.5706,-7.1353,1.8332,6.1152,-5.9553,4.1665,4.7151,0.5052,-0.0473,2.8108,0.7083,0.0
1741737600.512000,128,1.5471,-3.1312,2.2771,-14.5899,9.1976,-11.3180,-10.1372,5.4582,4.9825,-2.4685,-4.6888,6.1128,-4.9111,-0.0946,1.0789,0.3473,0.0
1741737600.516000,129,8.5376,-10.9931,-5.7188,-16.4429,7.8948,-6.0464,-12.7429,7.4155,1.3948,-2.3796,-5.8198,7.9384,-8.2658,-0.0498,0.8910,-2.9184,0.0
1741737600.520000,130,13.3293,-17.3867,-7.8261,-15.2994,2.7800,-2.3095,-9.2025,5.9162,2.1241,-2.5631,-2.2511,7.5550,-4.6003,-3.4381,0.0877,-4.7163,0.0
1741737600.524000,131,15.2693,-11.4130,-6.6937,-7.8382,-1.0996,7.0640,-3.6192,2.1021,-2.4565,3.5280,-0.0060,5.7493,-1.5841,-3.1581,0.0875,-1.8276,0.0
1741737600.528000,132,15.2766,-4.1066,-0.7731,-0.3570,-6.5242,13.8228,1.5259,-4.0626,-1.5441,4.0186,7.3580,0.3885,-1.3644,-2.1023,-1.1273,-1.9499,0.0
1741737600.532000,133,7.8133,6.3754,2.5560,7.0595,-11.7286,12.3828,4.5963,-9.0336,-2.1561,1.8917,11.4853,-1.9552,-2.1554,-4.4345,-3.7658,2.5326,0.0
1741737600.536000,134,-0.1460,9.2052,5.7294,9.4213,-12.1764,9.0368,9.5124,-12.3242,-4.6486,-4.1962,16.4329,-2.5260,0.7766,-2.5816,-2.8018,2.1568,0.0
1741737600.540000,135,-5.9553,9.8838,8.9082,5.0967,-7.5938,2.3999,7.1873,-10.6812,-5.5470,-3.6680,18.4551,-1.7676,5.7075,1.3450,0.4393,1.8245,0.0
1741737600.544000,136,-10.4241,8.6281,12.1694,-1.9823,-3.6226,-3.2953,2.4839,-6.3109,-4.9949,-5.8369,11.9174,-2.1179,5.7371,3.3555,3.1595,0.8307,0.0
1741737600.548000,137,-6.9442,2.3223,10.9234,-8.0228,-2.2014,-3.8715,-5.6062,-1.7896,-2.1078,-3.2081,2.1679,-1.0319,2.2544,5.0419,6.0800,-1.5345,0.0
1741737600.552000,138,-4.6881,-1.3497,10.2381,-13.9297,-2.0346,-2.8877,-7.9062,1.4421,-3.8305,2.4235,-7.0808,5.0698,-6.6885,4.6431,7.2062,-1.4888,0.0
1741737600.556000,139,2.4021,-8.5315,7.3567,-16.3619,1.1733,-1.0376,-8.9294,3.5367,-0.7674,4.9847,-11.0311,10.0235,-9.9884,4.3540,10.2428,-4.5749,0.0
1741737600.560000,140,5.1401,-12.6055,4.5360,-17.4348,-1.1245,0.1952,-11.5446,2.3755,-0.9070,10.2566,-6.6814,9.8871,-10.8076,-1.6115,6.7866,-8.2143,0.0
1741737600.564000,141,7.9757,-11.1583,3.0811,-10.0510,-3.0626,5.8879,-10.0968,-2.6164,-4.3044,10.5264,-3.0809,6.5551,-8.9981,-6.1950,4.3346,-7.8434,0.0
1741737600.568000,142,13.3830,-4.7813,2.4403,-7.7668,-5.3057,7.1997,-8.1798,-5.1482,-5.1330,7.8025,4.5682,-1.4524,-4.1633,-11.8019,-2.3883,-6.4787,0.0
1741737600.572000,143,10.9889,-1.9765,1.7781,-3.6420,-4.0333,6.8086,-5.8304,-10.0471,-7.6385,6.4979,4.3728,-9.5319,-0.6933,-8.9578,-6.6641,-1.1357,0.0
1741737600.576000,144,8.3461,6.2919,2.8114,-0.4509,-3.0450,1.4302,-3.0597,-11.5885,-8.8809,3.8653,8.6013,-11.4519,5.0465,-6.2109,-7.2076,0.9368,0.0
1741737600.580000,145,4.9314,7.1757,3.4907,-1.2739,-4.8946,-0.7340,-0.4144,-9.1000,-6.5435,0.0671,10.7416,-7.4501,9.3013,-2.5814,-0.5247,3.6836,0.0
1741737600.584000,146,4.2069,7.3472,8.4800,-1.7509,-5.3753,-3.3506,-2.4660,-5.9916,-5.0710,-3.4332,7.9875,-3.8786,11.3145,3.1356,4.1927,5.0422,0.0
1741737600.588000,147,3.1309,9.7015,11.7240,-0.1569,-2.7361,-0.4408,-2.5396,-4.0284,-2.0545,-5.8299,5.6550,3.4967,7.4225,7.3456,7.5891,2.7715,0.0
1741737600.592000,148,2.7234,5.6861,14.1007,-3.2519,-3.2294,0.3893,-4.8511,2.0470,-0.7610,-5.9256,3.1865,9.2700,-1.0711,6.8605,6.1114,-1.9441,0.0
1741737600.596000,149,2.3882,5.5532,10.8845,-4.7483,2.2730,1.0730,-5.6146,3.1920,2.0124,-2.7316,1.3978,13.1290,-8.2432,2.4396,3.5395,-4.7993,0.0
1741737600.600000,150,-2.9788,3.0968,3.9942,-6.4103,7.9961,0.1658,-5.3450,3.8776,1.2257,-2.9710,4.4288,11.7298,-9.3809,-3.2455,2.7200,-6.8338,0.0
1741737600.604000,151,1.4445,-2.5657,1.2919,-5.5666,8.9135,-1.0835,-5.4447,4.5126,-2.0647,-0.1771,1.8086,8.2992,-7.1516,-8.6968,0.0765,-7.2010,0.0
1741737600.608000,152,3.1377,-3.5110,-3.2030,-5.9063,10.2248,-0.4325,-4.6598,4.0407,-4.5349,0.1197,2.5388,-0.5870,-4.7164,-6.9837,-6.5888,-5.4621,0.0
1741737600.612000,153,7.8979,-4.1214,-6.2184,-7.0975,7.9710,0.1951,-2.9707,0.1039,-9.0780,-1.1253,1.4260,-5.3021,-4.1965,-6.6343,-8.1179,-2.1586,0.0
1741737600.616000,154,9.1910,-5.0422,-5.8661,-3.9295,5.2875,3.3348,-2.2005,-1.2607,-10.6867,-4.5546,-0.8613,-10.3004,2.1210,-3.0434,-7.4599,-2.4429,0.0
1741737600.620000,155,6.8099,-0.3726,-2.2354,-0.6758,-3.6138,3.6758,2.1852,-1.7479,-10.4509,-3.4242,1.4924,-8.3875,2.9907,0.7524,-2.7569,0.3761,0.0
1741737600.624000,156,3.0657,1.1096,4.5244,5.1548,-5.4043,4.5769,5.1591,-4.6350,-8.7500,-1.7471,0.2062,-4.7992,4.4030,3.9097,1.2196,0.6459,0.0
1741737600.628000,157,-0.2731,5.7599,11.1524,9.0797,-5.1289,6.1921,7.0414,-5.8008,-5.3044,-1.4108,4.8381,1.1723,4.6355,7.6126,5.3807,-1.4656,0.0
1741737600.632000,158,-7.2454,7.7046,15.9042,6.4544,-0.7119,7.2555,7.5998,-4.9631,-1.1387,-1.7160,6.2780,5.6318,-1.9240,9.7728,3.6208,-4.3607,0.0
1741737600.636000,159,-9.7610,9.4905,14.1494,-0.6341,6.9652,2.4873,3.9200,-1.6990,0.2517,0.5510,5.9060,8.4152,-2.9383,8.5062,6.0825,-3.1051,0.0
1741737600.640000,160,-8.9721,6.4483,7.5610,-5.7204,12.1229,-1.5166,0.0222,0.4118,0.9987,0.5685,4.9342,9.0542,-4.3890,6.4787,5.3236,-4.8210,0.0
1741737600.644000,161,-3.7300,0.0969,2.9547,-10.5512,11.0935,-4.2985,-3.2305,2.9459,1.5066,4.0562,2.4771,8.0800,-2.6531,5.4655,5.3468,-1.0250,0.0
1741737600.648000,162,2.8797,-4.3106,-3.9882,-13.2346,7.7412,-5.6051,-6.2529,1.6582,1.0854,7.7801,-3.8394,6.8609,-2.5993,3.8486,3.1448,0.6484,0.0
1741737600.652000,163,10.8250,-9.0593,-10.5426,-11.3482,5.5923,-2.9893,-5.8708,4.0930,2.7658,5.4504,-5.9979,3.1356,-3.1569,3.7237,2.8078,2.1399,0.0
1741737600.656000,164,16.4919,-7.5112,-10.2665,-7.4043,1.1679,-0.7066,-4.0778,2.2649,0.6671,8.9362,-5.6700,4.6624,-3.8608,3.9836,2.5106,-1.7823,0.0
1741737600.660000,165,16.8067,-1.6556,-5.7028,-1.1995,-4.8504,3.2344,0.0612,-0.9273,2.0490,9.9031,-2.6602,1.8644,-1.0542,-0.1617,-0.4314,0.9059,0.0
1741737600.664000,166,9.5893,8.1959,-0.6598,5.3668,-8.2882,5.4471,6.9550,-2.8808,4.5851,6.0112,-0.3395,0.3893,-2.0383,-0.6881,1.7368,2.3447,0.0
1741737600.668000,167,2.8766,15.4150,3.3383,9.5235,-7.9107,1.6530,5.4466,-6.0604,1.4556,1.3611,3.1464,-0.4701,1.4049,-1.3327,-0.8902,2.6810,0.0
1741737600.672000,168,-8.8688,15.1173,4.1455,10.4333,-3.9795,-0.4676,5.1824,-6.7839,0.6466,-4.0573,3.8130,-3.4139,2.7806,-1.7592,-2.2945,3.2691,0.0
1741737600.676000,169,-12.6298,14.7018,3.0723,6.3607,3.6917,-4.9576,3.0600,-1.8203,-1.0980,-7.9753,3.5677,-3.5990,4.3159,1.4661,-4.7557,2.5554,0.0
1741737600.680000,170,-11.5622,8.8946,2.1284,0.2710,3.3023,-8.8251,-1.3214,3.8187,-2.3265,-6.3336,-2.4093,-5.0733,4.7900,1.3339,-3.8674,3.2326,0.0
1741737600.684000,171,-5.5474,3.1963,-0.2975,-5.1961,6.4063,-7.3769,-5.8999,7.4425,-3.4620,-7.3629,-6.8566,-5.4301,6.5203,-1.0439,-2.7563,4.2222,0.0
1741737600.688000,172,-2.0618,-5.2080,-3.9036,-6.2514,6.5296,-9.0345,-8.5217,10.7509,0.3860,-3.9971,-12.9181,-1.8711,3.0459,-0.4070,-1.0703,-1.3597,0.0
1741737600.692000,173,-0.2118,-10.8650,-5.1040,-4.9761,5.9536,-5.2679,-7.7890,8.9654,-2.8327,0.8257,-13.3430,-0.3804,1.8011,2.8961,-0.5758,-3.6499,0.0
1741737600.696000,174,4.6218,-7.4601,-3.5060,-0.0806,6.1516,-4.1436,-3.0714,5.2328,-3.0220,-1.0454,-10.7310,-0.0531,0.0955,0.5787,-2.4272,-8.8629,0.0
1741737600.700000,175,4.1476,-9.1248,-2.8283,2.1022,4.0707,-0.3814,2.2030,1.5329,-5.5496,0.9587,-9.6974,-3.6558,-1.8808,-2.3785,-5.5695,-7.1353,0.0
1741737600.704000,176,0.8300,-1.4542,-5.0347,8.0126,0.0446,0.3191,2.7241,-3.2809,-3.7236,-1.6479,-6.9696,-5.9460,1.6082,-5.1906,-8.0250,-4.5236,0.0
1741737600.708000,177,-0.8258,3.2896,-7.9374,13.1348,-1.7782,-2.2730,5.8074,-6.6568,-5.2779,-6.2082,-4.9821,-6.9084,6.8401,-8.2600,-7.4504,-3.7647,0.0
1741737600.712000,178,-5.3281,2.6442,-8.2150,13.5155,-2.1679,-2.7228,7.8167,-8.8675,-7.1980,-12.1556,-1.6461,-8.9050,10.1204,0.0624,-6.8316,-1.5461,0.0
1741737600.716000,179,-2.8250,1.7093,-9.1041,9.6204,0.9100,-2.3571,6.1915,-4.1187,-5.3486,-10.9640,-2.1773,-7.9487,9.3411,2.5301,-5.6099,-0.0777,0.0
1741737600.720000,180,-4.7439,2.3360,-5.7170,5.2132,2.1481,-1.4158,3.6834,0.7997,-2.6011,-9.4877,-1.8374,-5.9389,8.4879,6.1516,-1.4306,-0.2300,0.0
1741737600.724000,181,-3.6023,2.9917,-0.4941,3.7672,0.3853,0.0520,0.0970,3.5389,1.6780,-5.4100,0.9767,-0.4294,4.8599,3.5758,1.8062,-0.2759,0.0
1741737600.728000,182,-3.3204,1.3190,1.3411,4.1122,-1.0381,0.0013,-0.4491,3.7728,4.1900,-5.4954,-0.0680,3.3222,0.5303,5.1351,2.5600,-1.9891,0.0
1741737600.732000,183,-3.5833,-1.8648,-0.3176,4.2865,-4.2421,-3.6488,0.8871,4.5543,3.6397,-5.2486,-0.8831,9.3376,-3.8581,4.6257,3.0372,-1.0495,0.0
1741737600.736000,184,-8.9737,-2.5807,-3.5012,2.7014,-0.7535,-8.6878,1.3152,5.1104,5.6235,-2.8429,1.0577,11.4305,-4.2578,-1.6552,-0.3285,-3.5787,0.0
1741737600.740000,185,-5.2637,-3.8247,-5.7855,1.9756,1.6077,-9.9057,-0.0075,3.3643,2.7809,-1.6505,0.7271,2.0270,-2.4706,-3.9096,-5.9254,-3.2385,0.0
1741737600.744000,186,-2.3922,-0.4600,-6.2649,-1.5338,2.5046,-11.6061,0.5738,5.0355,4.0229,-0.8571,-5.2416,-4.2383,-1.3094,-7.7848,-7.3291,2.2115,0.0
1741737600.748000,187,-0.0233,0.2968,-10.3831,-0.0178,1.4536,-10.8454,-2.8267,2.9928,3.7350,-4.9031,-8.7730,-9.8186,-0.7888,-10.6214,-9.0456,2.2127,0.0
1741737600.752000,188,1.0208,-0.1176,-7.6589,2.1741,-0.3827,-10.3833,0.5133,4.5023,2.1217,-6.9321,-9.2513,-11.0411,2.4527,-7.7410,-7.7669,2.9391,0.0
1741737600.756000,189,-1.4669,-4.5272,-6.1593,2.1615,-3.7672,-7.6106,2.1905,4.2715,1.6272,-7.6398,-9.2717,-9.7103,1.2025,-1.9169,-6.4015,2.4201,0.0
1741737600.760000,190,-5.3931,-4.9904,-1.4107,0.1783,-3.8649,-3.4424,1.6527,3.7490,-2.6783,-10.1892,-5.8521,-7.9885,1.5003,-0.0390,-6.2519,2.2838,0.0
1741737600.764000,191,-6.8024,-2.6109,3.6671,2.4417,-5.1832,0.2066,3.9705,4.1866,-0.2593,-8.8657,-3.5240,-7.3246,4.0621,-1.7958,-3.0650,4.0489,0.0
1741737600.768000,192,-10.6241,0.8584,2.6353,3.0429,-6.2781,1.5927,2.8919,-0.7359,0.5899,-6.9511,-2.9962,-6.8051,1.9914,-4.1592,-5.0145,1.4111,0.0
1741737600.772000,193,-15.5836,-1.2852,1.5932,4.3799,-3.8902,-3.2205,2.3757,-4.2497,1.3996,-10.6471,-0.3403,-2.8911,2.5497,-4.4461,-6.4727,-0.2171,0.0
1741737600.776000,194,-12.9886,-3.8036,-2.8559,3.5215,2.5948,-6.9854,3.3334,-3.1365,-1.2665,-10.1432,1.7496,-2.1008,4.5886,-1.3243,-7.1573,-3.0342,0.0
1741737600.780000,195,-10.8194,-6.4550,-7.4055,-4.0721,5.6822,-10.3772,0.4143,-0.8863,-3.0879,-7.5675,0.9747,-4.4567,7.0801,-0.1339,-3.7945,-4.7612,0.0
1741737600.784000,196,-3.8557,-10.4128,-9.5333,-9.5658,4.3856,-12.1521,-1.5439,0.7152,-3.8887,-5.0765,-4.5229,-7.5425,5.3215,2.4669,-3.8628,-3.2536,0.0
1741737600.788000,197,2.7362,-9.4975,-8.8003,-8.4697,-3.5559,-8.8100,-3.2527,0.6889,-0.0093,-3.1788,-9.9377,-7.1538,0.6355,-1.2979,-1.9418,-6.0811,0.0
1741737600.792000,198,2.5668,-12.8371,-7.0127,-4.3143,-10.7887,-5.9458,-2.3168,-3.2902,-1.6917,-5.0580,-13.5655,-3.6290,-0.9988,0.3488,-0.6544,-6.3596,0.0
1741737600.796000,199,-0.2029,-12.0099,-8.7310,2.5450,-15.8594,-3.9095,2.0383,-6.9725,-0.2464,-0.6770,-11.0474,0.0803,-4.9330,-0.7733,-0.4971,-10.8955,0.0
1741737600.800000,200,-1.8450,-5.9857,-8.6152,5.5215,-15.8831,-1.7892,1.3484,-10.1343,-2.9491,-1.4717,-3.2440,-0.1901,-4.9831,-10.0915,-5.1373,-9.7330,0.0
1741737600.804000,201,-4.4455,0.3215,-4.2315,5.6623,-16.0202,1.9202,0.5906,-9.5596,-0.3329,-1.2905,0.5042,-7.8616,-3.1093,-10.1080,-8.6771,-9.4717,0.0
1741737600.808000,202,-4.0026,7.0377,1.9502,3.7280,-12.4122,3.7826,-1.5153,-8.1843,-1.5994,-1.4003,6.9637,-13.1933,1.8763,-12.0918,-9.7122,-8.4832,0.0
1741737600.812000,203,-7.0620,5.0524,-1.4998,-0.6417,-11.7497,-2.7470,-5.4812,-6.0780,-2.3233,-5.6573,8.1161,-14.3459,2.7455,-11.4608,-9.0432,-2.6367,0.0
1741737600.816000,204,-6.0042,-2.3045,-1.5353,-5.5229,-8.6597,-10.5090,-10.4860,-0.3203,-4.6045,-8.3002,6.8212,-11.4824,4.6236,-6.7529,-9.1790,-2.8866,0.0
1741737600.820000,205,-6.1544,-9.0302,1.4396,-11.5830,-5.8454,-11.8750,-13.6862,2.1716,-4.0869,-6.1035,2.3351,-9.2538,5.7312,-3.9594,-5.7765,-2.6414,0.0
1741737600.824000,206,-1.8436,-13.2790,1.9119,-12.7066,-2.3802,-14.0472,-11.8609,8.2162,-1.8159,-4.7417,-4.1094,-7.2159,1.6839,-3.1098,-4.4766,-1.8496,0.0
1741737600.828000,207,-1.4003,-11.7212,8.5401,-10.5756,-4.1881,-10.3568,-13.1281,3.2367,1.4283,-2.0240,-10.6662,-5.2639,-4.6383,-6.1591,-2.5445,-1.9387,0.0
1741737600.832000,208,0.0977,-10.7540,7.6058,-5.5146,-1.9812,-9.3741,-13.1134,0.0518,1.9140,-4.8433,-12.7977,-0.6813,-6.5469,-7.9159,-4.9783,-7.2744,0.0
1741737600.836000,209,-1.2291,-10.0219,0.8742,-4.1071,-3.1963,-6.4231,-6.1608,-4.6507,0.9401,-5.1149,-10.3174,3.1391,-8.8063,-11.0638,-6.4468,-10.8251,0.0
1741737600.840000,210,-4.0540,-7.3187,-1.8155,-1.8740,2.1584,-2.8925,-5.1152,-5.4696,-1.5460,-9.5315,-4.5529,-0.0984,-6.2673,-13.2339,-10.1550,-9.4934,0.0
1741737600.844000,211,0.4827,-7.6892,-2.2430,-2.8204,4.4125,0.7191,-5.3185,-4.6652,-4.5618,-10.6861,-1.9456,-8.9002,-3.9320,-11.7492,-14.8245,-6.0836,0.0
1741737600.848000,212,-0.4058,-4.6549,-3.3987,-4.3342,1.2805,5.4479,-5.0265,-5.9233,-8.0102,-10.2115,0.7394,-16.1299,0.8417,-10.9548,-13.8851,-2.2531,0.0
1741737600.852000,213,-1.2624,-6.4311,-4.8110,-6.0780,-2.3599,6.2113,-4.1680,-7.6848,-7.7591,-10.1147,1.0426,-13.2869,3.0180,-6.3133,-13.8145,1.8481,0.0
1741737600.856000,214,-5.1483,-9.3115,-1.7052,-2.3261,-7.1095,4.9688,-1.9681,-8.8863,-7.0667,-12.3375,4.7657,-11.8225,1.5448,-4.7511,-7.2838,-0.3363,0.0
1741737600.860000,215,-8.5113,-6.3371,-1.7267,1.4358,-8.9524,3.1871,1.8388,-9.6680,-6.0891,-7.7076,8.0026,-4.4663,1.1839,3.2896,-1.0564,-1.9630,0.0
1741737600.864000,216,-5.7890,-5.7326,5.4233,0.6422,-6.3895,5.8330,3.5458,-7.5629,-2.4436,-0.8365,12.5032,0.8640,-0.0187,6.2243,4.4148,-7.4056,0.0
1741737600.868000,217,-5.3694,-1.8330,10.0956,-2.5205,-3.8624,2.5234,3.5102,-10.7731,2.3514,0.3983,10.3282,1.7069,-7.6321,5.9042,5.7591,-8.8350,0.0
1741737600.872000,218,-8.0913,1.3390,12.1621,-4.3066,-5.5381,-0.0026,-1.0150,-9.6600,4.6088,3.9333,9.2983,8.5639,-13.2279,2.6306,4.2701,-7.6178,0.0
1741737600.876000,219,-10.4167,-2.5472,5.7115,-9.7084,-3.3738,-6.2590,-3.6527,-10.2747,-0.3177,2.4891,4.2821,6.0330,-16.7499,0.3164,4.6679,-10.0945,0.0
1741737600.880000,220,-11.7862,-7.7233,0.6320,-12.9922,-0.6119,-10.3869,-4.1196,-10.2168,-3.3150,1.5725,0.5784,6.7272,-16.3318,-3.2267,3.6819,-9.9562,0.0
1741737600.884000,221,-3.4126,-7.8258,-3.4145,-14.5216,-1.3587,-8.2420,-4.9435,-8.0807,-4.9853,5.9391,-2.4783,0.3763,-13.8369,-6.8236,1.9997,-7.8064,0.0
1741737600.888000,222,7.9031,-6.8250,-4.3975,-14.6130,-4.3737,-0.7423,-9.1275,-6.7276,-4.5923,9.7176,-3.1834,-4.8024,-12.0875,-6.7318,2.2173,-6.7625,0.0
1741737600.892000,223,8.9710,-1.2969,-1.4338,-13.6419,-7.2301,4.6585,-9.2089,-8.8806,-4.2162,9.8763,-1.7670,-7.3024,-10.6083,-1.8863,1.2622,-3.4348,0.0
1741737600.896000,224,13.2400,0.6664,1.0000,-9.0437,-12.6227,6.4780,-7.4842,-10.2378,-2.9620,9.9770,8.5741,-3.5959,-6.9029,1.7642,0.5240,-6.0441,0.0
1741737600.900000,225,6.6286,3.5428,8.6496,-4.7193,-11.1809,4.7735,-5.1593,-8.1066,-3.9181,7.6215,15.5469,-1.7131,-1.7380,3.3030,3.2810,-3.1713,0.0
1741737600.904000,226,4.7803,5.9320,14.7957,-4.2736,-9.5310,3.9718,-3.3664,-6.5339,-2.9126,4.0493,19.8747,-0.5275,-1.7518,3.7483,5.6604,0.3145,0.0
1741737600.908000,227,-0.1804,8.0917,18.5486,-4.3915,-4.0432,-3.9421,-4.7538,-6.7276,-1.7622,1.4236,20.1357,2.1707,1.0576,1.5173,7.2200,-1.0113,0.0
1741737600.912000,228,-0.7276,8.9265,18.0878,-5.5415,0.6457,-10.7300,-10.5400,-0.8274,-1.9641,-1.7452,10.2509,5.3476,-1.5357,1.8239,4.8255,0.3843,0.0
1741737600.916000,229,1.3592,4.9237,10.0879,-8.2079,5.7807,-13.0153,-11.9964,-1.0172,-2.4514,-4.6160,2.4180,11.6146,-3.7469,2.3672,4.2075,-2.9069,0.0
1741737600.920000,230,2.0542,2.5774,-0.1369,-12.3253,10.2268,-13.5044,-11.1786,3.2118,-1.2807,-3.5175,-2.2061,13.1086,-3.9525,1.3164,4.6280,-7.7724,0.0
1741737600.924000,231,9.6681,-2.3561,-3.3918,-15.1810,11.4852,-7.2975,-12.1339,6.2205,-4.0345,-2.3513,-4.7704,8.8824,-4.0428,2.9874,2.8483,-12.2347,0.0
1741737600.928000,232,18.0702,-5.3556,-3.0599,-14.4638,7.1855,1.6029,-11.5306,8.4071,-4.3082,-1.0636,-4.7621,4.4130,-4.5524,-0.7066,-0.8417,-14.0609,0.0
1741737600.932000,233,20.3855,-4.9877,1.1377,-6.1769,4.9435,12.5525,-9.8984,6.3511,-7.4443,0.3915,-3.2843,1.9045,-6.5224,-2.6648,-3.2706,-13.8813,0.0
1741737600.936000,234,14.6040,-3.0083,5.1991,0.1460,-0.8832,15.3777,-2.2217,0.8814,-11.1029,-1.9506,3.9778,0.9672,-12.1944,-5.2664,-9.5039,-13.2031,0.0
1741737600.940000,235,4.0780,1.6967,6.8317,7.7342,-4.3553,13.9610,3.6062,-5.8803,-15.3260,-2.1560,13.3819,-0.7815,-5.3892,-5.5721,-5.8873,-9.0338,0.0
1741737600.944000,236,1.2701,6.7472,5.9091,9.9005,-0.6549,11.3656,8.0185,-8.3452,-17.8242,-4.6792,18.7855,-2.5069,1.8349,-1.8846,-3.1623,-6.4022,0.0
1741737600.948000,237,-0.7050,10.1519,9.5503,9.4089,1.6775,8.2155,8.2960,-8.8028,-16.1370,-2.0229,22.4748,-6.3615,8.7498,2.5450,0.6455,-2.3219,0.0
1741737600.952000,238,-2.2620,11.4071,12.1690,4.3285,2.9323,7.4747,6.2882,-2.7933,-10.6291,-2.4598,22.2058,-2.6493,8.3744,11.1642,3.4384,-4.2090,0.0
1741737600.956000,239,0.3230,4.2666,16.8898,-5.0666,5.9447,2.0869,-0.0198,-2.5740,-7.4908,-0.6587,12.0907,4.3882,2.4284,15.0682,6.5469,-5.5637,0.0
1741737600.960000,240,0.1507,-0.1991,14.4878,-11.4368,6.8843,1.5095,-2.9824,1.6922,-4.7388,2.4566,5.2620,12.8800,-3.9063,18.1111,10.3421,-7.9594,0.0
1741737600.964000,241,2.5001,-5.9242,17.2044,-11.2355,6.0682,-0.9037,-3.9553,3.4508,1.1726,7.8250,-0.8671,19.6823,-9.1713,16.6222,17.1527,-8.8068,0.0
1741737600.968000,242,7.7684,-4.9203,16.1923,-13.0689,7.0314,3.2009,-3.8948,0.3175,1.2781,9.5616,-3.0675,17.8758,-14.8190,9.2364,16.3827,-6.1678,0.0
1741737600.972000,243,7.1555,-3.8776,11.3832,-5.9451,7.4654,8.3013,-1.0631,0.1129,1.8394,14.1207,-3.4162,17.6112,-17.1625,1.5578,12.2453,-6.0900,0.0
1741737600.976000,244,12.9570,0.5729,5.8110,-3.9924,7.6371,12.7659,1.1603,-4.3319,-0.5987,15.7804,4.3487,10.6641,-13.6264,-1.0241,8.7193,-2.1526,0.0
1741737600.980000,245,14.5507,6.9767,0.1175,-1.3244,8.4733,13.3563,1.5958,-6.8518,-2.7845,10.8983,11.5471,5.3894,-5.5395,-0.2164,4.4016,6.2739,0.0
1741737600.984000,246,16.7006,12.4693,-0.2735,1.1649,5.2101,13.2413,2.9966,-6.9604,-0.9286,7.7682,17.5153,-4.6139,1.8976,0.8028,3.3389,10.7060,0.0
1741737600.988000,247,14.3894,15.7964,2.1310,1.6958,1.6734,11.3324,5.3032,-0.7647,-5.9059,1.0217,19.5517,-4.8304,9.9470,6.1804,5.0173,14.8307,0.0
1741737600.992000,248,13.8065,17.2910,10.6649,5.1270,-0.7946,5.3593,2.1171,-0.1913,-5.9037,1.3047,17.3023,-1.1416,9.0656,12.1440,9.5045,15.5241,0.0
1741737600.996000,249,7.8320,14.9594,17.4570,4.5792,-2.8854,2.7757,2.8387,4.1572,-3.6467,-2.9199,13.7954,7.8400,4.7599,15.2010,11.2809,13.3872,0.0
1741737601.000000,250,-1.1147,18.1110,18.8723,9.7226,3.6659,-2.9725,4.8686,4.9938,0.3184,-0.9003,8.1868,17.9495,0.6814,12.8731,14.3410,9.3692,0.0
1741737601.004000,251,-1.2301,16.2463,17.4037,6.9198,9.1008,-5.8825,7.2718,6.7450,2.6455,-1.3093,5.6497,22.4210,-3.7286,8.7953,16.0802,3.0445,0.0
1741737601.008000,252,-1.1307,14.5768,12.2284,5.0198,16.0170,-7.8563,2.7355,7.3804,1.4899,-1.9129,0.4233,20.4123,-1.9358,5.4527,13.4162,-1.2880,0.0
1741737601.012000,253,1.5683,9.9165,5.1002,0.9290,20.9567,-3.8040,1.1669,11.9082,-1.7786,-2.3023,1.5678,14.4639,-2.3463,0.1249,4.1380,-6.4995,0.0
1741737601.016000,254,7.2188,4.2324,-2.8815,-2.9842,23.7725,0.7116,-2.6315,12.6758,-7.2849,-2.1387,-2.7038,5.2249,-2.8157,-0.1857,-4.3232,-5.1538,0.0
1741737601.020000,255,10.5719,-0.1575,-10.9430,-5.9768,18.9009,4.8877,-1.2560,9.6442,-14.0575,-1.9309,-1.8198,-2.8245,1.5064,-0.9710,-7.3129,-3.3885,0.0
1741737601.024000,256,14.2626,-3.4985,-9.2750,-1.4123,10.9325,8.5633,2.1234,8.0527,-15.0822,-0.4129,-1.6550,-4.4859,7.2349,-0.9141,-7.1634,0.2492,0.0
1741737601.028000,257,15.4312,-2.7010,-6.2359,6.1202,0.7233,12.9558,7.0045,0.8600,-15.9307,-3.2022,3.6491,-5.3872,10.2865,4.5596,-1.7395,1.9076,0.0
1741737601.032000,258,12.6822,3.6316,-1.6220,15.8340,-4.9233,15.5710,13.7670,-0.8617,-13.8449,-1.0908,9.6946,-0.8830,13.9918,10.2028,3.8535,-3.3074,0.0
1741737601.036000,259,4.9511,9.1184,7.9617,18.7674,-2.1531,13.7124,19.3261,-4.4590,-10.3481,-0.8475,14.5310,-0.2943,12.6428,17.2486,4.4392,-1.7340,0.0
1741737601.040000,260,-0.4628,15.1139,15.8133,17.3335,0.7841,9.3260,18.8625,-1.7663,-1.5134,-0.9912,20.3279,5.5133,11.4170,16.7366,8.0631,0.0980,0.0
1741737601.044000,261,-3.0555,16.9241,18.2650,9.3314,5.7463,4.5632,13.3840,3.0437,2.0915,-2.1377,18.1083,7.9662,9.4210,17.1345,10.6885,-2.9571,0.0
1741737601.048000,262,-6.5886,13.2594,16.7939,0.6081,10.1543,-4.2880,6.7813,6.2424,5.7556,-0.6119,9.7794,12.3943,6.5932,15.4141,12.1749,-1.5415,0.0
1741737601.052000,263,-2.4171,3.4874,9.6069,-4.7653,11.0066,-6.2138,0.0525,10.6028,6.4067,1.8598,0.1708,15.5184,2.8857,14.2092,11.6785,0.5576,0.0
1741737601.056000,264,5.9215,-6.8186,2.5639,-11.7044,11.3859,-5.7573,-4.5066,14.6232,11.4368,6.4522,-3.9051,16.4646,-3.5160,9.9941,10.4951,-0.5919,0.0
1741737601.060000,265,14.2972,-11.1892,-5.4686,-13.4887,9.2673,1.1461,-4.0244,14.9402,10.6090,7.7710,-10.7792,12.5231,-1.4596,3.5279,6.1670,1.1574,0.0
1741737601.064000,266,19.7541,-9.6494,-7.4846,-10.6085,2.3662,10.4161,-0.3285,9.1648,11.4166,12.2649,-7.0520,5.5549,-2.4267,-1.3918,4.5277,1.4544,0.0
1741737601.068000,267,22.1340,-1.8296,-6.1081,-1.3377,-4.0746,15.4792,2.0837,10.0373,12.4953,14.4714,-0.2540,0.5236,2.3368,-5.6275,1.2230,6.0228,0.0
1741737601.072000,268,17.3754,5.6782,3.0880,8.2292,-9.4076,15.6480,4.9293,4.7896,11.1203,11.4086,7.4694,-1.1035,8.4388,-5.3235,-6.1925,9.8842,0.0
1741737601.076000,269,9.2806,8.6626,10.4081,14.2814,-8.6101,12.9721,9.5177,4.1026,8.8374,5.5303,14.1025,-5.8145,10.2425,0.0084,-6.9383,13.4291,0.0
1741737601.080000,270,-3.9759,12.0449,13.6082,12.6868,-7.1176,4.2043,10.2365,-0.0795,6.7060,0.8324,13.7101,-9.1111,14.3662,-1.5309,-5.9641,17.1304,0.0
1741737601.084000,271,-8.3234,14.7429,18.4038,8.7565,-2.8679,-4.2302,8.0002,1.5544,7.7303,-5.4290,7.0995,-4.4925,17.2061,1.3393,-3.5267,17.3827,0.0
1741737601.088000,272,-14.4843,8.8883,17.6791,4.4678,1.4493,-8.7908,1.3945,6.8879,8.1415,-6.0628,-2.7142,-1.2563,12.7216,3.0391,0.7992,17.0201,0.0
1741737601.092000,273,-10.8182,2.2459,10.5400,-0.8341,5.5619,-9.9507,-1.2880,9.3899,12.2495,-4.5553,-12.5532,2.8678,11.2866,5.1372,3.8282,12.5563,0.0
1741737601.096000,274,-5.2519,-7.6319,5.6363,-4.9490,10.9930,-8.0751,-5.3449,12.1548,11.6042,-1.2220,-18.4923,5.9867,6.2307,6.0567,4.3579,6.0592,0.0
1741737601.100000,275,3.0637,-11.6415,3.0260,-5.7073,12.8242,1.3302,-2.1300,11.8204,9.1341,3.3858,-16.5726,4.6387,1.5457,-0.3636,1.0325,-0.7753,0.0
1741737601.104000,276,4.8329,-15.0047,-1.0314,-4.8589,9.4178,5.6474,-2.1325,6.2191,7.5748,6.9530,-15.5589,-0.3680,-0.9017,-4.5401,-4.0302,1.3053,0.0
1741737601.108000,277,7.0143,-12.7595,-5.3295,2.0420,3.2062,9.5391,-0.3938,0.7732,3.8345,4.9587,-10.1092,-5.9608,0.8849,-9.1787,-6.5839,0.4520,0.0
1741737601.112000,278,3.5445,-6.7517,-6.8739,10.3413,-1.2130,10.9549,4.9419,-7.9179,0.4822,4.1670,-3.1466,-11.0165,3.7453,-12.8624,-10.2001,0.1913,0.0
1741737601.116000,279,-0.2054,-3.6870,-13.1786,18.3104,-4.5055,9.5732,9.9744,-12.3503,-7.6256,2.3958,3.9082,-14.1186,5.9330,-6.8160,-9.3099,5.5135,0.0
1741737601.120000,280,-1.7764,3.3829,-9.4449,18.7725,-6.2645,7.5618,12.3816,-14.2848,-7.1968,-0.9414,12.1156,-15.8984,13.3425,-2.3752,-4.5530,5.8906,0.0
1741737601.124000,281,-4.0129,7.8418,-1.3037,19.5193,-5.8917,4.1620,14.9363,-13.4841,-4.8379,-5.0384,11.3765,-15.0958,16.1604,3.5790,-0.7734,10.2583,0.0
1741737601.128000,282,-6.1743,13.2835,5.3613,16.6361,-7.1413,1.7814,7.7377,-7.2598,2.6514,-2.7390,9.6156,-7.8979,11.6676,7.5459,8.1172,6.2002,0.0
1741737601.132000,283,-9.1835,9.7612,10.9695,13.3996,-5.9190,-3.6602,4.7638,-3.7616,7.8976,-2.3717,5.4666,1.8945,2.2919,10.9019,9.7931,2.6965,0.0
1741737601.136000,284,-11.9844,6.5441,11.7995,9.0509,-2.0231,-6.5743,1.9842,-0.2507,10.5407,-0.9546,4.3524,11.2934,-4.2072,8.0424,11.7928,-0.2168,0.0
1741737601.140000,285,-15.0114,-1.9510,8.9838,5.6652,4.9200,-10.5347,0.0035,6.2337,10.3799,2.8821,1.7184,13.8973,-7.4072,3.3379,12.9436,-5.0760,0.0
1741737601.144000,286,-8.4223,-2.3956,3.6105,1.6461,12.7996,-9.6271,-2.0032,7.4329,8.7097,5.2570,2.3657,12.0437,-13.3889,-5.4587,7.8698,-2.6175,0.0
1741737601.148000,287,-1.2685,-0.2352,-4.4738,1.9766,12.7809,-8.2820,-3.1300,7.5342,8.6965,8.4425,-0.0009,6.3749,-11.9486,-11.7006,2.8961,2.8525,0.0
1741737601.152000,288,6.6290,-1.8429,-11.2683,0.7026,10.2539,-7.2141,-3.9357,3.9229,5.6439,2.6831,0.1813,-3.0133,-5.4133,-15.6080,-3.9303,1.7999,0.0
1741737601.156000,289,9.6237,-2.8473,-17.0552,4.0920,8.4056,-5.0760,-2.3096,4.4239,-0.5114,0.4885,4.5725,-9.4359,2.9275,-10.1890,-6.3706,6.0978,0.0
1741737601.160000,290,12.8381,-1.4309,-14.5102,9.1285,4.8463,-3.8053,2.1557,3.6658,-1.3075,-4.6116,9.3138,-11.8900,6.4003,-3.2305,-7.8590,8.2085,0.0
1741737601.164000,291,11.8932,3.7340,-5.0636,9.9785,1.0153,-2.9697,6.8457,4.0046,-1.6724,-4.7496,10.6717,-10.4147,9.0210,1.1049,-3.4621,8.5927,0.0
1741737601.168000,292,6.6163,10.8936,5.1366,15.7867,-3.6575,-0.4634,10.6622,2.9480,-1.2745,-10.1723,9.8987,-3.7640,7.9718,5.7983,-0.2815,8.9589,0.0
1741737601.172000,293,-3.1004,17.3009,13.7557,19.7683,-0.6099,-3.8874,11.7004,0.6752,2.6438,-13.4937,9.5156,5.4319,4.0172,6.9421,4.7450,6.8071,0.0
1741737601.176000,294,-12.0914,16.9305,8.6712,17.4975,5.6390,-6.8511,12.7455,0.3572,6.6331,-15.4676,8.1865,14.3856,2.5697,8.3529,8.1204,0.0266,0.0
1741737601.180000,295,-13.9530,12.8143,3.1439,12.8843,12.0456,-8.7397,12.4092,2.6160,4.4535,-16.4841,9.6578,17.0617,2.0461,10.3278,7.5408,-6.3449,0.0
1741737601.184000,296,-8.7235,7.0739,-4.9486,0.4724,22.1643,-8.0926,8.5783,7.2282,2.8350,-12.9855,7.2436,15.4739,3.8249,7.9261,5.4744,-6.5297,0.0
1741737601.188000,297,2.8570,0.7818,-10.3167,-10.2606,22.6922,-4.1525,3.7792,12.7001,5.6442,-8.6013,3.6266,7.7322,2.5413,4.5013,1.2021,-6.2625,0.0
1741737601.192000,298,8.8561,-6.8969,-13.4243,-8.6015,14.8026,0.9212,2.0449,9.2515,1.2363,-4.5137,-1.3063,6.6070,2.6185,3.5601,-0.6247,-7.4856,0.0
1741737601.196000,299,15.4174,-9.7611,-15.6422,-4.8080,4.4734,2.5856,3.3845,4.2840,0.3060,-3.2835,-0.4945,4.9429,0.1163,3.2945,-1.1746,-8.0041,0.0
1741737601.200000,300,15.7818,-8.9859,-15.7821,-1.1291,-5.8760,4.9413,9.2632,0.3668,-3.2325,0.7279,5.9840,1.7843,0.6032,6.1180,1.0912,-9.1921,0.0
1741737601.204000,301,12.7160,-5.3780,-6.8534,2.5144,-10.7595,10.6076,15.2837,-3.2828,-1.8167,3.7078,11.1051,1.1348,5.0624,7.2389,3.7867,-8.5677,0.0
1741737601.208000,302,9.5348,7.1121,2.6400,8.0741,-13.8283,10.8386,17.7287,-9.7649,0.5433,7.2345,13.7407,0.6111,5.7127,5.5644,4.9399,-2.4632,0.0
1741737601.212000,303,2.9492,19.8637,11.3982,9.3249,-13.0160,8.2324,14.5603,-13.0278,5.6968,4.7524,15.8254,-0.5127,4.8303,4.9088,5.2507,-2.5112,0.0
1741737601.216000,304,-4.7893,18.0551,13.0654,6.2293,-11.2662,-0.4407,10.7102,-12.7318,4.4776,0.7804,13.4276,2.7636,4.8064,5.8115,3.6145,1.1280,0.0
1741737601.220000,305,-9.2144,12.8229,14.2236,-1.8331,-4.7728,-2.8705,4.4839,-3.2698,6.3637,0.9091,8.7221,2.9045,8.9856,8.6634,3.4138,2.7427,0.0
1741737601.224000,306,-5.3005,2.1996,12.3355,-15.1603,-0.3856,-8.3410,-6.6902,3.7826,6.4076,4.4517,2.6288,3.1612,7.3296,6.5088,5.8405,1.9702,0.0
1741737601.228000,307,2.5511,-4.3588,11.7699,-21.8388,1.1190,-4.2325,-11.8918,10.3936,10.3891,8.4253,-7.1110,3.5964,1.1200,3.9484,8.2704,3.4383,0.0
1741737601.232000,308,11.0406,-8.2317,8.7440,-23.7467,1.1548,-4.2793,-16.8050,8.5211,13.2164,11.9570,-15.5030,5.8405,-1.9453,-0.7600,3.0433,2.3873,0.0
1741737601.236000,309,17.5274,-12.5424,5.1257,-18.8679,-4.0423,0.8960,-17.7871,5.3227,10.1594,11.5330,-13.8206,8.0661,-3.2824,-4.9830,0.9766,-0.8791,0.0
1741737601.240000,310,16.5218,-11.6064,-0.1399,-10.1130,-4.1954,4.8370,-10.7537,3.2884,9.1094,12.4030,-7.2534,5.9139,-0.8938,-5.9316,-4.0609,-0.2607,0.0
1741737601.244000,311,16.9542,-7.1158,1.4084,-4.7128,-7.0688,5.4596,-7.1970,-2.5825,5.0403,9.6304,0.6199,-4.7489,3.6497,-9.3835,-8.1956,2.1067,0.0
1741737601.248000,312,12.3970,-0.2987,1.8586,0.2674,-5.4559,5.0045,-3.2422,-4.6075,-0.1939,2.1902,1.3997,-10.7589,8.3165,-10.2872,-10.9147,4.7176,0.0
1741737601.252000,313,10.0591,8.1680,6.8248,7.1098,-6.6255,7.7002,-4.6691,-6.9962,0.7972,-3.5193,0.3702,-12.7601,10.2908,-8.9267,-14.5068,9.1752,0.0
1741737601.256000,314,0.3149,12.5512,6.3837,9.7360,-7.0910,2.8610,-1.8641,-7.2952,-4.4971,-8.6707,-1.7789,-13.2910,12.1393,-8.5393,-9.3843,9.8423,0.0
1741737601.260000,315,-6.5789,6.6731,4.6880,7.3766,-5.9065,-2.5266,-2.9821,-2.3076,-5.7483,-10.2439,-4.0623,-7.5455,10.8072,-1.5366,-5.9964,5.6654,0.0
1741737601.264000,316,-6.6444,1.5776,7.0738,4.6549,-0.8939,-0.4625,-0.8944,0.6760,-6.5483,-9.7085,-4.7349,-1.2523,8.0853,2.3128,-2.7207,2.4567,0.0
1741737601.268000,317,-3.5225,-3.0247,9.8203,-2.2299,2.2754,2.7258,-3.5447,5.8324,-2.2034,-6.8429,-5.1996,-0.7173,2.4878,0.4021,-0.0365,-2.2765,0.0
1741737601.272000,318,-2.3079,-6.6369,8.2926,-1.9119,3.6399,5.4765,-4.7311,7.1847,-1.3114,-4.9839,-6.7705,3.0565,-2.5452,-1.4605,-1.4820,-4.5391,0.0
1741737601.276000,319,-3.1886,-8.9420,5.7982,-4.2133,5.7264,8.5515,-5.8923,4.0310,-2.3817,0.1160,-2.1100,1.1741,-7.0312,-5.5857,-5.9316,-11.1677,0.0
1741737601.280000,320,-3.9233,-9.7600,-0.8418,-1.3957,5.1077,5.2710,-1.2540,-0.9489,-3.4086,0.9969,-1.7268,0.7505,-6.8554,-5.9692,-8.5474,-6.6681,0.0
1741737601.284000,321,-5.3054,-10.0956,-4.7230,-0.2652,8.2309,1.8795,0.0388,-3.7156,-6.0596,-0.1174,2.3580,-5.8757,-4.1921,-8.9376,-5.5094,-6.7055,0.0
1741737601.288000,322,-2.7942,-8.6982,-6.1679,-3.7525,4.4132,1.3607,1.8279,-6.4834,-9.1497,1.0240,1.0091,-9.9787,-2.1644,-5.9582,-6.2208,-3.9355,0.0
1741737601.292000,323,-1.8778,-6.0730,-4.8374,0.7048,2.3385,0.7760,4.2006,-6.8210,-5.4863,0.9558,-0.3337,-12.9621,-2.0549,-2.6488,-3.7048,1.3729,0.0
1741737601.296000,324,1.6333,-1.5357,-2.1639,0.5583,-4.3416,1.3144,5.6416,-9.3973,-5.3412,1.3665,-3.9384,-10.2494,-3.2840,1.2710,0.8941,4.2909,0.0
1741737601.300000,325,-0.6850,2.5440,1.4578,4.2399,-6.8032,0.4626,3.6427,-10.1654,-0.3597,-1.3792,0.0967,-1.0232,-1.7582,5.1178,2.9347,2.9304,0.0
1741737601.304000,326,-5.9360,3.8641,5.4683,5.0845,-3.8726,-2.1481,7.4765,-8.3254,1.6230,0.2378,3.3128,4.1671,-4.3624,7.4887,10.1891,3.6437,0.0
1741737601.308000,327,-9.2767,8.4749,8.7758,2.8533,0.8657,-0.4402,7.9880,-3.3668,5.6949,0.8270,6.8366,5.1325,-6.7952,6.7547,12.5469,4.4051,0.0
1741737601.312000,328,-10.1045,9.9754,7.8757,3.7678,4.5850,0.0172,0.8858,-2.2847,7.6074,1.5209,5.8566,8.3992,-10.3013,2.9969,10.8460,1.7046,0.0
1741737601.316000,329,-8.0287,9.7567,4.4511,-3.1357,8.9565,-5.3871,-0.3020,-0.7509,7.8653,2.6875,3.1988,10.1051,-13.2104,2.8482,6.7885,5.2432,0.0
1741737601.320000,330,-6.1196,6.0793,-4.9059,-4.2788,9.1259,-9.7475,-2.8587,0.9728,4.2044,-0.8680,2.8202,6.9602,-9.2455,0.3618,6.3605,5.6376,0.0
1741737601.324000,331,-1.5909,2.6542,-13.6641,-5.7028,8.7426,-12.4872,-3.0200,6.3273,2.6050,0.2543,4.0142,3.9813,-5.7931,1.7129,2.9637,6.1973,0.0
1741737601.328000,332,6.3399,1.1442,-16.8954,-5.7465,8.5568,-12.5708,-4.5855,5.7463,-1.8677,0.0292,-1.0489,-1.1177,0.0051,1.8435,1.8620,2.7225,0.0
1741737601.332000,333,9.5183,1.2646,-14.7123,-3.7146,3.4486,-7.8672,-4.4959,5.8392,0.2835,-0.0584,-2.8303,-6.2220,-0.0289,1.1126,-0.7310,4.0922,0.0
1741737601.336000,334,8.1709,3.3069,-10.8134,3.1029,-3.5394,-6.5512,-0.0221,3.4187,-1.1089,-2.2110,-8.6120,-4.6128,-2.2685,1.8650,-1.0986,-1.6679,0.0
1741737601.340000,335,2.1051,8.4374,-9.6810,8.1644,-6.8601,-7.6102,5.5345,2.3444,-1.2322,-3.7840,-6.1204,-1.5763,-2.1032,0.1139,-3.8076,-2.5089,0.0
1741737601.344000,336,-5.0310,7.4705,-7.3208,11.7915,-5.4159,-5.9710,7.8210,-0.4684,-5.2277,-5.9937,-3.8774,-0.5581,-0.3687,-2.3666,-3.4693,-4.9834,0.0
1741737601.348000,337,-10.1874,11.5316,-3.9965,10.1709,-2.2063,-6.2413,7.0938,-0.2698,-5.8670,-9.1863,-0.4805,-5.8091,1.6308,-2.1919,-3.9604,-5.9713,0.0
1741737601.352000,338,-12.1200,8.9105,-5.7672,5.3915,2.4720,-6.7476,6.3646,1.8554,-6.7541,-10.3367,-4.3240,-6.4865,4.8460,-1.7164,-4.7213,-7.4349,0.0
1741737601.356000,339,-9.1596,4.3518,-10.5273,-0.9421,3.9837,-8.5354,0.8731,3.9261,-5.0164,-10.4931,-5.2137,-8.2870,7.1462,-1.7043,-6.2181,-4.7339,0.0
1741737601.360000,340,-4.5399,-2.3909,-11.0617,-7.0452,4.8005,-8.7826,-3.8646,6.9875,-6.8436,-11.0280,-8.1888,-6.7145,7.7667,1.2818,-5.9635,-5.6888,0.0
1741737601.364000,341,-1.5246,-9.3265,-15.6116,-10.1148,4.5402,-8.8497,-3.6366,7.0098,-8.3912,-5.8525,-11.4459,-4.9703,8.3245,3.1376,-2.9033,-7.9215,0.0
1741737601.368000,342,3.9200,-13.2716,-13.4333,-8.4494,-0.0146,-8.1399,-2.7037,7.0285,-4.3733,-1.1834,-9.9752,-2.3502,7.3055,4.4911,-2.5536,-11.1998,0.0
1741737601.372000,343,9.9404,-11.0366,-10.2597,-4.4975,-4.2585,-4.0336,-1.8341,4.3241,-1.9427,-0.7154,-10.3051,-1.9749,2.4299,2.1620,-2.5556,-11.1415,0.0
1741737601.376000,344,7.0999,-8.3561,-5.6566,2.5397,-5.2581,-2.1287,2.5189,-1.0578,1.8018,1.0801,-11.3950,-0.5782,-0.9606,1.6743,-2.9969,-13.0482,0.0
1741737601.380000,345,1.8847,-3.2500,-5.8150,4.2721,-7.7627,-2.4188,4.2205,-4.0720,2.0829,-1.5579,-6.8412,-1.0385,-1.2331,-1.5287,-6.3702,-7.6911,0.0
1741737601.384000,346,-2.8457,0.9358,-6.8313,5.3831,-5.9232,-4.6557,6.5243,-7.4840,4.5688,-2.4939,-3.1391,-5.1065,0.0265,-5.9708,-7.2747,-3.3110,0.0
1741737601.388000,347,-6.2759,1.4125,-9.1224,2.5449,-5.1368,-3.8161,5.2784,-6.3541,2.8882,-4.3620,-5.4963,-5.8308,5.5424,-5.7241,-6.5535,-0.1452,0.0
1741737601.392000,348,-7.2388,-0.5800,-6.2575,1.6520,-7.1445,-5.6511,1.6746,-1.0685,3.7469,-7.2701,-5.3524,-8.6466,5.9010,-5.5676,-7.7721,1.9717,0.0
1741737601.396000,349,-4.3777,-2.1924,-4.9768,-1.6390,-3.7184,-2.8777,-4.2486,1.6613,4.6204,-5.4908,-8.4644,-9.0826,5.4329,-2.3182,-9.0637,2.5272,0.0
1741737601.400000,350,-4.2507,-4.9739,-5.6301,-6.3939,-5.6533,-4.7896,-6.2481,4.1289,5.8149,-6.0338,-7.4364,-8.3793,3.3299,-3.4260,-8.5830,6.5425,0.0
1741737601.404000,351,-7.6291,-10.8680,-3.0815,-6.7611,-6.6966,-3.8032,-5.0732,6.6137,6.1113,-2.7768,-8.2065,-5.6902,-1.2313,-1.9372,-4.1130,6.8845,0.0
1741737601.408000,352,-8.4419,-10.8666,-1.8472,-6.1226,-5.9923,-6.6008,-3.8327,5.4471,8.3921,-2.5859,-8.4913,-5.9578,-2.3756,-7.3689,-3.2149,6.7665,0.0
1741737601.412000,353,-10.6371,-7.2354,2.0279,-3.4062,-6.7456,-7.2817,-2.7879,1.8141,8.1095,-4.7081,-7.5277,-5.3495,-2.5371,-7.8488,-5.5194,6.0202,0.0
1741737601.416000,354,-11.9351,-7.9991,1.8368,2.5825,-5.1328,-10.3384,-1.4486,1.3639,3.9775,-5.7569,-8.3984,-7.1356,-2.4585,-13.1494,-10.8161,3.4814,0.0
1741737601.420000,355,-13.4590,-6.4106,-4.7233,-0.7601,-2.1896,-11.2612,-2.1794,-5.2169,2.0462,-7.5731,-12.4115,-11.5909,-3.7814,-14.7139,-13.3694,4.2902,0.0
1741737601.424000,356,-12.3185,-8.8237,-7.0415,0.1772,1.0899,-11.1348,-5.0992,-7.9643,-2.7655,-9.2574,-13.4861,-13.9154,-0.2334,-12.6071,-12.9805,5.0533,0.0
1741737601.428000,357,-12.3178,-8.4967,-9.4311,-0.9600,-0.1275,-11.2862,-2.8862,-5.4873,-6.1154,-8.5385,-15.9914,-15.9680,3.3056,-12.3495,-12.2288,3.6015,0.0
1741737601.432000,358,-10.0524,-9.9017,-11.0135,-0.7619,-1.6720,-8.0197,-2.1228,-8.3665,-4.5635,-10.3342,-17.3043,-15.8693,3.1776,-9.1898,-9.5034,2.4379,0.0
1741737601.436000,359,-7.6236,-9.2591,-7.5534,1.8468,-4.3184,-2.0529,0.6294,-7.2707,-6.3508,-11.0822,-14.1351,-14.0042,1.4622,-4.4564,-6.5548,-0.0108,0.0
1741737601.440000,360,-9.6939,-9.6388,-4.5987,1.6659,-8.4284,-0.2834,0.1271,-6.3655,-5.6455,-8.7842,-7.5824,-12.0800,-0.2442,-2.1939,-6.0948,-2.5144,0.0
1741737601.444000,361,-12.5098,-6.2543,-1.7767,1.0487,-9.4571,-2.0781,1.2815,-5.7336,-6.8506,-7.3595,-2.8511,-10.3423,-3.7340,-5.2855,-3.9904,-1.5741,0.0
1741737601.448000,362,-14.2534,-6.2488,-3.6537,4.1197,-7.1278,-3.8253,1.2250,-9.3142,-4.6400,-6.1431,0.1453,-9.2157,-3.4864,-8.1133,-1.6757,-1.8444,0.0
1741737601.452000,363,-15.6176,-3.6079,-4.4775,6.1027,-8.8106,-8.2726,2.8456,-11.3428,-5.5273,-7.8663,2.4185,-8.7721,-3.3267,-7.4190,-1.3868,-4.8355,0.0
1741737601.456000,364,-14.6590,-3.2406,-10.8628,0.5025,-4.6816,-12.1868,-1.8513,-11.1313,-5.4849,-7.7901,1.0345,-6.1748,-1.8033,-3.9067,-3.9068,-8.1101,0.0
1741737601.460000,365,-13.0800,-6.8203,-14.7164,-5.8310,-2.3177,-16.2917,-4.9349,-5.6526,-4.4790,-7.7977,-1.7726,-9.2274,-2.6023,-2.8347,-6.0316,-4.7562,0.0
1741737601.464000,366,-6.3574,-10.2682,-14.8407,-9.4343,-4.0048,-17.1929,-7.8901,-4.0247,-1.4735,-8.5692,-5.2688,-8.6734,-6.7363,-3.9029,-3.8588,-5.8871,0.0
1741737601.468000,367,-4.1342,-9.0204,-14.7298,-12.5890,-7.4607,-14.2053,-8.0615,-2.8867,-0.9238,-5.3406,-8.2486,-6.0792,-7.8038,-5.8923,-4.8325,-7.7553,0.0
1741737601.472000,368,-3.2451,-11.4539,-9.9612,-5.1512,-11.7868,-13.0088,-6.7872,-2.4250,-1.3789,-4.2456,-10.9125,-3.8961,-10.2309,-8.3218,-3.6632,-7.9892,0.0
1741737601.476000,369,-4.1075,-10.0111,-8.2349,-4.5722,-14.2009,-8.9523,-4.1998,-0.5806,2.3657,-4.0303,-9.8316,-2.8572,-10.5957,-11.6011,-4.5963,-8.1565,0.0
1741737601.480000,370,-8.3203,-6.7956,-5.6336,0.1773,-13.4322,-7.7029,-4.7185,-3.2314,0.1420,-2.7769,-2.6728,-4.1713,-9.7817,-12.9745,-8.1625,-7.3832,0.0
1741737601.484000,371,-7.9820,-2.5226,-7.2350,-3.4000,-9.9968,-6.9173,-7.4885,-3.1479,-2.3303,-3.7647,-1.4026,-9.7367,-6.1184,-13.5839,-14.1373,-5.0256,0.0
1741737601.488000,372,-8.9924,0.1030,-2.5977,-4.1187,-5.4270,-6.2585,-4.8405,-4.6980,-1.9827,-8.1255,5.4950,-13.4582,-1.8794,-12.0833,-16.3524,-0.5568,0.0
1741737601.492000,373,-7.9615,-4.0179,-5.4295,-9.9067,-6.0231,-11.1851,-10.0052,-0.9521,-2.2471,-9.3422,3.7462,-12.9797,2.8841,-8.6119,-13.3947,0.1036,0.0
1741737601.496000,374,-7.4121,-7.7371,-2.0949,-11.6859,-5.4404,-13.6852,-11.9865,-1.0722,-3.4084,-10.2833,-1.0491,-12.1461,3.9969,-4.3011,-10.7129,-1.1212,0.0
1741737601.500000,375,-6.2761,-14.0736,-4.9267,-13.8739,-6.7721,-14.1161,-12.4140,1.9324,-4.3135,-9.3111,-5.5541,-7.1256,1.7891,0.7972,-7.6544,-0.6837,0.0
1741737601.504000,376,-2.6486,-18.4258,-3.2712,-14.2560,-5.6018,-12.0533,-12.0075,-0.3644,-2.9999,-5.6602,-7.4536,-2.1754,-2.8113,0.6980,-7.0805,-6.3120,0.0
1741737601.508000,377,-1.3423,-15.8573,0.0192,-12.4935,-6.1683,-6.5123,-8.7444,-1.7251,1.7398,-2.6598,-9.1687,2.6788,-4.7031,-4.1557,-3.6958,-8.3679,0.0
1741737601.512000,378,-2.1916,-12.1133,-2.3718,-6.3022,-5.3962,-0.9546,-7.0657,-6.1437,3.2071,-1.8002,-10.8804,2.8330,-7.5047,-10.0654,-5.3133,-11.8547,0.0
1741737601.516000,379,-3.0125,-11.6602,-3.5086,-7.4263,-8.1736,2.2852,-7.8339,-13.4961,-0.7602,-3.8220,-5.2883,0.2168,-9.2335,-10.5149,-8.8541,-12.3300,0.0
1741737601.520000,380,-4.0088,-9.8946,-7.5945,-7.5070,-8.5868,4.6376,-5.2667,-12.8044,-5.4632,-4.9451,0.0895,-5.1690,-7.3722,-10.4875,-11.0639,-12.0430,0.0
1741737601.524000,381,-4.7243,-10.9276,-4.8230,-10.4886,-3.9193,5.6022,-6.8769,-15.0622,-6.0952,-1.6982,6.1434,-12.2397,-4.0739,-8.1167,-13.3224,-5.1762,0.0
1741737601.528000,382,-1.4564,-11.1496,-5.7126,-13.9081,-8.6201,6.1810,-7.0446,-10.7657,-6.9986,-1.4170,5.8356,-14.6034,-1.3092,-8.1296,-11.7239,-2.2552,0.0
1741737601.532000,383,-1.2582,-9.5537,-2.6448,-11.6361,-15.0535,3.9502,-7.8315,-12.1902,-6.6186,0.0862,3.7278,-13.4077,-3.1277,-6.9156,-6.8970,-0.3632,0.0
1741737601.536000,384,-1.8259,-7.1296,-0.5302,-6.3824,-18.7028,2.6338,-7.4196,-12.8072,-5.9807,1.1489,3.6548,-8.1678,-3.7018,-4.0340,-3.8594,-2.0025,0.0
1741737601.540000,385,-6.0999,-11.8743,3.7361,-6.4279,-17.6522,1.8176,-6.7962,-14.1841,-3.6604,5.3242,4.7740,1.3309,-7.8610,0.0848,-0.8636,-5.8875,0.0
1741737601.544000,386,-6.2411,-8.6721,8.9804,-7.4600,-12.3468,0.2996,-8.7035,-10.0887,1.4920,7.7335,5.3077,4.9697,-11.8962,0.9409,2.7520,-7.5585,0.0
1741737601.548000,387,-7.4132,-0.3288,13.7832,-11.6313,-7.9784,-0.5545,-8.4463,-12.1597,2.6536,10.8170,5.9645,3.6974,-13.9883,-5.5254,0.2857,-7.6247,0.0
1741737601.552000,388,-7.7685,-0.8268,16.1277,-13.8359,-7.2587,-3.1536,-11.2086,-9.6247,3.8880,10.6242,4.0489,2.9680,-16.5909,-8.0131,2.6507,-5.2376,0.0
1741737601.556000,389,-6.2159,-4.8774,9.6444,-13.9653,-4.8088,-6.1793,-16.1014,-8.4572,0.0244,6.5867,1.2744,1.1648,-16.2789,-10.1114,-3.9374,-5.3609,0.0
1741737601.560000,390,-4.2983,-8.9291,2.8277,-16.7398,-3.3983,-6.7517,-17.2055,-9.1517,-6.3633,3.7030,-0.3331,-0.6101,-14.4893,-11.0830,-5.5559,-2.3507,0.0
1741737601.564000,391,0.7758,-11.4605,-2.1749,-16.1179,-2.3046,-4.7082,-14.2389,-7.5729,-9.8490,5.7468,-0.7931,-4.3013,-8.8295,-8.3604,-4.0288,-0.3415,0.0
1741737601.568000,392,7.2739,-8.4527,-4.1040,-16.2587,-1.3518,-0.0001,-13.2332,-7.2696,-9.3163,7.4696,0.2371,-7.7720,-5.8633,-8.5043,-2.7348,2.2487,0.0
1741737601.572000,393,10.7574,-2.9253,1.6728,-9.9938,-3.8991,8.9505,-12.3739,-6.8732,-10.2385,5.9215,1.3601,-4.9432,-5.7733,-6.3316,-1.5623,1.6019,0.0
1741737601.576000,394,9.0939,2.2505,7.4204,-1.1225,-7.7459,9.4548,-8.8181,-11.8762,-9.0891,1.1612,7.5293,-0.9603,-5.7474,-1.0134,0.4408,-2.6011,0.0
1741737601.580000,395,2.8618,4.5197,8.7563,3.4857,-7.1854,7.3120,-4.2542,-13.3812,-9.3568,-0.7819,13.4350,2.0716,-8.6381,3.1268,0.8608,-3.3920,0.0
1741737601.584000,396,-4.3354,5.5293,11.4548,2.9060,-2.3022,0.8580,1.3922,-12.1051,-11.5807,-5.2324,16.1007,7.6144,-7.1428,4.6181,3.6570,-5.7487,0.0
1741737601.588000,397,-4.0766,7.2337,10.9258,-0.0538,3.8168,-2.2732,-1.6718,-9.9057,-12.6657,-4.4555,16.6660,5.7502,-5.2813,3.6006,6.3068,-4.4590,0.0
1741737601.592000,398,-3.3122,7.4461,8.2917,-4.2076,5.2490,-5.7900,-6.2617,-7.2777,-10.1629,-4.1237,11.3428,4.7552,-6.3377,0.0220,1.3096,-7.7306,0.0
1741737601.596000,399,-2.5245,6.4414,2.7201,-6.8759,6.1566,-6.3497,-7.3851,-5.9722,-10.3642,-3.3358,4.0583,9.0142,-8.7929,2.7053,5.2720,-7.6391,0.0
1741737601.600000,400,3.1516,-0.7419,-6.1982,-9.5283,7.1781,-3.5606,-5.0452,-3.8217,-10.1940,0.0281,4.6302,10.1763,-10.8222,4.5146,4.1423,-13.6628,0.0
1741737601.604000,401,9.4622,-3.5320,-6.4684,-11.0965,10.8088,0.6074,-4.0308,0.9224,-11.8372,3.8901,7.2855,10.2680,-10.8060,7.9523,4.1845,-16.0176,0.0
1741737601.608000,402,16.0205,-0.5714,-2.2343,-13.9346,7.1730,7.2560,-1.5069,0.7588,-11.2400,5.6031,11.4584,8.4988,-10.5063,5.7033,3.2895,-14.1693,0.0
1741737601.612000,403,15.7147,1.1841,5.7654,-8.0024,2.4594,13.0066,-2.2501,0.6914,-10.5165,6.4776,15.4207,4.5405,-10.5160,3.5677,3.6432,-11.7969,0.0
1741737601.616000,404,12.8957,6.8830,11.2383,-2.4132,-2.1974,9.8456,3.6079,-6.4593,-10.7974,7.4605,17.2168,7.5619,-11.9873,3.9816,3.2586,-6.9915,0.0
1741737601.620000,405,1.9323,12.2659,9.6071,2.6050,-2.6156,3.1730,4.9398,-8.5975,-10.2236,4.0918,21.8609,8.4288,-7.1055,4.0418,4.6307,-6.9107,0.0
1741737601.624000,406,0.9778,12.8144,10.5250,0.9626,3.9240,-1.5282,6.0249,-7.1341,-7.0487,6.5106,23.4676,10.1196,-1.6948,7.6541,8.5619,0.1019,0.0
1741737601.628000,407,2.5117,11.6264,10.5357,-7.0794,8.2776,-2.5645,5.3264,-3.3715,-6.7676,7.0987,19.9039,8.4067,0.4338,11.1982,10.5448,-1.2635,0.0
1741737601.632000,408,9.2041,13.4341,12.9835,-9.9269,10.8844,-0.6745,0.9618,1.7916,-1.5495,5.6636,13.0253,10.3438,2.2296,14.3000,12.8703,1.5433,0.0
1741737601.636000,409,12.1346,10.1200,12.1706,-14.2836,11.5030,-0.3557,-6.4093,4.3175,2.9301,5.9837,5.7077,16.7960,-3.2738,16.5271,12.4432,-1.1249,0.0
1741737601.640000,410,11.4300,5.7487,12.4763,-16.1867,9.4261,1.4826,-7.3975,6.6689,4.2406,6.0636,1.8655,21.5669,-5.8706,18.7818,14.3457,-1.5948,0.0
1741737601.644000,411,13.2850,1.8745,12.3043,-12.7139,8.3259,5.8667,-6.1633,4.6509,1.2089,10.0318,4.2885,24.4735,-9.3161,13.9021,12.9061,-3.6750,0.0
1741737601.648000,412,14.0295,1.1367,10.0135,-8.2455,10.3107,9.4971,-1.7900,1.4259,1.1929,11.1019,7.1506,23.1609,-7.3032,6.6447,11.2083,-2.0122,0.0
1741737601.652000,413,14.8906,7.8306,6.8797,-5.1289,8.5987,13.2081,0.9899,0.0847,0.1838,12.2178,9.3876,14.6408,-1.6130,2.5164,4.4446,-1.0685,0.0
1741737601.656000,414,16.7385,15.1311,6.9735,-1.0061,5.9832,15.0306,1.6236,-4.5457,-1.8273,9.0847,12.2078,7.5064,1.5882,0.3232,0.4333,3.3966,0.0
1741737601.660000,415,14.6677,18.2614,1.8806,2.1663,4.9191,13.4173,3.6921,-4.5021,-4.9055,6.1732,12.8752,3.8838,4.0646,2.7279,-0.9501,2.5686,0.0
1741737601.664000,416,11.6494,17.2356,3.2260,0.1229,4.7036,9.5007,3.0121,-0.8212,-6.3650,5.0329,16.3699,1.9845,11.3185,10.6398,3.0230,5.8249,0.0
1741737601.668000,417,9.7024,13.0319,7.0333,-0.6309,2.6654,8.4610,4.8699,1.6801,-7.8139,-0.5935,13.1928,2.3916,13.1804,13.8503,4.7980,7.1636,0.0
1741737601.672000,418,10.7536,14.4404,13.5847,-0.0708,1.6931,6.6048,3.3558,3.8255,-6.5635,4.4565,6.1738,5.5664,11.0288,17.4379,9.2049,3.5894,0.0
1741737601.676000,419,6.6043,11.7799,20.1214,-0.1958,1.4590,7.4531,4.1956,6.8649,-5.6993,2.3593,0.7871,12.5555,3.6821,15.4207,11.8741,2.0094,0.0
1741737601.680000,420,2.1427,9.4606,19.8055,3.9834,1.9136,6.2763,2.3531,1.6986,-4.3017,6.9230,-1.1802,20.3119,-2.5937,8.1350,11.4889,-1.6039,0.0
1741737601.684000,421,1.3099,8.9162,13.1400,3.7496,5.7828,6.4046,3.8018,1.5499,-3.9614,9.5486,1.3991,19.2309,-0.0361,5.7515,12.0406,-5.0066,0.0
1741737601.688000,422,4.8838,6.7229,11.0097,3.4274,11.5003,7.8806,2.4071,2.3341,-4.6863,10.9049,7.2572,14.5160,2.0018,1.8688,7.0862,-4.9614,0.0
1741737601.692000,423,10.5352,6.2836,5.2042,-2.1072,14.2681,12.9993,-0.2250,6.0607,-5.5799,10.2224,9.0563,2.6320,5.0566,1.7260,3.0430,-0.2874,0.0
1741737601.696000,424,18.3661,4.8660,1.8413,-4.0107,13.8129,12.8751,-3.1796,4.4464,-5.6888,8.8227,9.3216,-3.6722,6.5627,2.2390,-1.2748,5.1510,0.0
1741737601.700000,425,21.0081,3.2009,3.7140,-2.2422,7.0409,9.2622,-2.7779,3.7116,-4.8711,9.6256,6.3023,-1.7967,7.7700,4.4779,-0.9955,6.6021,0.0
1741737601.704000,426,16.7255,4.0260,3.7287,4.3280,1.8586,6.2237,1.8253,0.8487,-5.4788,5.7893,7.8142,-0.2343,8.0485,8.7959,2.2987,10.0415,0.0
1741737601.708000,427,13.6990,3.5571,8.9891,7.4603,-2.1112,6.0354,5.1920,1.6324,-6.1010,5.9280,6.5284,5.9766,9.1762,8.2370,8.8913,9.9006,0.0
1741737601.712000,428,10.0239,11.1508,13.6396,13.6285,2.0884,8.1279,7.7617,3.4040,-0.3238,6.1363,10.1215,8.8671,9.2226,8.8448,11.7401,8.7088,0.0
1741737601.716000,429,8.6109,19.9573,17.5161,16.3354,7.3733,8.4655,9.3393,3.0721,6.5789,3.1294,10.1657,14.6297,5.9467,8.7257,11.5568,7.9892,0.0
1741737601.720000,430,2.8500,22.2303,18.4605,14.4404,10.5120,7.9314,6.9595,6.1250,8.1950,2.5220,10.0744,16.4867,5.5992,9.8612,7.5612,8.2869,0.0
1741737601.724000,431,1.6432,18.1088,9.3035,7.6024,16.7248,0.9048,6.0182,8.8214,9.1148,-0.3569,11.4335,16.0094,6.4573,7.4770,1.2055,8.4027,0.0
1741737601.728000,432,-0.4682,8.2285,7.4704,1.3019,17.8671,1.9653,1.0368,12.6242,5.1305,-2.1668,7.4589,10.0752,6.3087,5.6184,2.3661,8.9342,0.0
1741737601.732000,433,4.4660,3.5051,1.0291,-6.0610,18.3570,-1.6010,1.0800,18.7092,1.7749,-1.5701,3.2969,4.9361,4.8324,3.1645,1.6814,11.7644,0.0
1741737601.736000,434,10.9080,-1.4292,-3.0114,-2.4802,13.9148,4.6439,2.8716,14.0349,2.2066,0.8325,0.4750,1.6400,6.2225,1.9556,0.8541,11.7090,0.0
1741737601.740000,435,14.3052,-0.3850,-2.5136,3.5546,9.0605,6.8424,3.0993,13.4296,3.4987,5.7590,1.4179,2.5813,2.4654,3.9107,-1.4142,8.8428,0.0
1741737601.744000,436,11.8385,2.3939,-3.7123,8.7050,3.5986,9.2659,10.0224,6.9874,1.8557,6.6786,5.7053,3.7900,7.4069,5.3443,-0.3683,8.4600,0.0
1741737601.748000,437,7.2042,6.1046,0.9868,12.8872,3.8403,9.1580,12.8558,3.3616,5.2901,6.9171,10.6297,2.0304,11.8431,5.2123,1.9612,6.8529,0.0
1741737601.752000,438,2.8358,12.1566,9.1120,17.2846,4.3452,8.0209,17.9245,0.7366,4.6456,3.3998,14.8856,0.8181,12.4446,8.9773,2.1536,7.4021,0.0
1741737601.756000,439,-2.4220,16.5125,12.6216,13.8040,3.7808,3.2947,15.0178,-0.9239,4.3794,0.7183,11.3098,0.1353,10.1627,8.8393,3.7707,7.0037,0.0
1741737601.760000,440,-8.2625,14.5328,13.2627,10.6530,4.7318,-1.2392,11.0600,0.3144,4.8463,1.5772,5.5194,2.8394,7.9863,10.1133,4.7678,9.3821,0.0
1741737601.764000,441,-8.6530,7.4732,6.7780,4.2442,8.3249,-3.8906,8.1343,1.0893,4.0683,1.7234,1.0401,3.6743,6.1045,10.0132,4.4528,7.5072,0.0
1741737601.768000,442,-4.0788,2.3619,0.3418,2.0564,8.7490,-3.0820,5.0877,3.2108,8.6140,5.2267,-0.4405,5.6511,7.0024,10.5759,7.9052,7.8835,0.0
1741737601.772000,443,5.5262,0.2362,-1.5481,-0.4693,7.4713,0.6764,4.5367,7.4334,9.7445,10.5804,-4.3011,7.4825,8.8550,9.1026,11.0474,4.0705,0.0
1741737601.776000,444,10.8100,-3.6957,-4.6865,-1.5750,6.5766,6.6009,1.6013,10.1409,12.9885,13.1252,-3.0134,4.3423,9.8318,9.4271,8.9719,4.1149,0.0
1741737601.780000,445,14.7447,-2.3434,-1.7178,1.2126,2.3027,11.3518,0.3807,5.4732,13.3790,17.0475,2.4794,4.5166,5.0313,8.6833,5.6450,3.5100,0.0
1741737601.784000,446,13.8076,2.5318,1.4252,4.7385,-1.4046,7.6519,3.1973,5.3152,12.5491,14.5418,8.4795,4.7528,6.2610,4.6792,2.2099,4.6741,0.0
1741737601.788000,447,8.1133,6.1072,1.8867,9.2973,-4.4039,3.9987,5.4227,3.8847,7.6310,11.6333,10.8355,3.4017,9.1500,0.6821,0.9972,7.6219,0.0
1741737601.792000,448,4.3482,11.3523,2.9803,14.9085,-5.3162,-1.3708,6.0156,1.7265,8.9368,7.2204,11.6018,-0.8537,10.5918,-0.1424,0.8066,9.8019,0.0
1741737601.796000,449,0.3873,11.5685,2.8571,15.4607,-4.1219,-6.1092,4.7986,0.2984,6.3614,4.9891,5.7210,-1.6931,13.5047,-1.3166,-0.1127,11.5149,0.0
1741737601.800000,450,-0.0680,11.7445,2.1356,13.9791,-1.0448,-9.6401,1.5603,3.9869,7.7557,1.6526,3.0894,-0.0315,13.9469,-0.4833,-0.0571,9.5220,0.0
1741737601.804000,451,-0.9521,9.4517,2.0513,9.6752,5.2235,-9.4308,1.0818,10.1970,9.7343,1.3194,-3.9990,2.4179,15.2049,2.3067,-1.5671,8.0342,0.0
1741737601.808000,452,2.0363,7.6465,3.5745,3.5849,6.2144,-5.4739,-0.2090,13.9029,9.9986,-0.5453,-5.5602,4.3732,11.5565,-0.2049,1.1771,7.5640,0.0
1741737601.812000,453,1.4558,1.2526,4.5168,4.8843,5.8237,-1.4964,-2.6892,17.8093,10.2713,-0.4826,-5.3839,2.7032,9.4470,-2.1352,-2.2223,2.7021,0.0
1741737601.816000,454,-0.3086,-1.2011,6.5805,7.0682,6.6798,2.0177,-4.4234,15.5901,7.8095,-1.4180,-3.6936,2.2851,7.1251,-3.6078,-5.4439,0.6129,0.0
1741737601.820000,455,0.2377,-3.5128,3.5129,7.8857,8.1493,0.0408,2.1821,11.3837,3.4241,-0.7417,-1.5279,1.5715,4.6976,-5.0491,-7.8717,2.1577,0.0
1741737601.824000,456,-2.3916,-3.1113,0.8338,9.1868,8.8206,0.9350,5.5910,8.1740,2.1924,-4.0553,0.2097,-2.2399,9.2260,-9.2075,-9.7683,4.1891,0.0
1741737601.828000,457,-3.5323,-3.4674,-3.9920,13.2494,9.6194,1.3256,7.8627,2.1343,-0.1542,-3.2166,5.6245,-6.6059,12.5274,-9.6505,-9.1065,8.3449,0.0
1741737601.832000,458,-1.0792,-1.0651,-7.3536,11.1533,9.6837,1.2841,9.0302,2.6466,-1.7005,-5.1426,5.7224,-7.9924,16.1812,-1.9139,-6.9462,5.9158,0.0
1741737601.836000,459,1.5100,-0.2157,-5.6813,12.0395,5.7848,-0.9955,9.0779,0.6911,-0.6994,-5.6770,5.7450,-7.8744,17.6022,5.7448,-5.5786,3.1446,0.0
1741737601.840000,460,1.8984,-2.1563,-3.4730,10.0773,4.1555,1.3037,9.0621,2.2661,-0.2218,-8.0069,4.5680,-4.7581,15.1602,11.2723,-0.8849,4.0770,0.0
1741737601.844000,461,-1.5925,-1.9962,4.4289,10.6746,3.8631,2.7015,8.1927,0.4389,4.1431,-8.1567,3.6068,2.4318,5.1138,13.1847,2.8846,4.0376,0.0
1741737601.848000,462,-5.2803,0.9958,6.2206,11.0670,1.1349,5.4753,10.7587,0.1983,7.2061,-2.5898,-0.2548,10.6020,0.7869,9.4770,9.7089,1.0765,0.0
1741737601.852000,463,-5.7874,3.1478,5.6795,10.9271,-1.2749,2.3617,11.7776,-1.6038,8.4421,0.0972,3.6026,13.6613,-1.8509,6.0362,9.9470,2.1240,0.0
1741737601.856000,464,-6.9207,4.6757,3.3777,10.3937,0.5370,4.0653,10.9405,-3.0136,8.6354,0.9634,6.1392,13.2600,-2.0917,3.5336,9.6671,-1.8785,0.0
1741737601.860000,465,-2.3009,3.8009,-3.9348,7.3968,5.6675,3.2048,9.3350,-2.1217,6.3998,0.8766,13.8032,6.6904,-0.3235,1.1260,5.3724,2.5476,0.0
1741737601.864000,466,0.9503,1.5352,-3.8236,1.1953,7.6310,-0.0520,7.2441,-0.5246,5.8432,3.0723,15.7701,0.4397,0.6302,2.2140,0.8668,4.0036,0.0
1741737601.868000,467,5.1833,2.2766,-8.4787,-1.5042,4.2521,-0.7390,3.5348,3.2640,5.9495,4.8242,15.1024,-3.8448,2.6003,0.0726,1.2354,7.0480,0.0
1741737601.872000,468,7.1509,1.7764,-3.5172,-1.2686,-1.6169,-4.7340,0.5660,4.7902,5.5134,4.6464,10.9763,-0.5862,6.0097,3.2567,3.1691,10.0956,0.0
1741737601.876000,469,4.9838,3.8772,0.7862,2.0449,-7.7848,-6.3224,0.1147,4.0629,5.1188,1.1196,6.0716,0.5220,3.7719,5.5239,7.2040,9.4547,0.0
1741737601.880000,470,4.3753,5.7481,7.7315,6.6003,-8.1225,-9.6193,1.5698,0.4219,7.1620,2.6030,3.6826,9.3888,1.7555,6.3264,8.0194,5.5352,0.0
1741737601.884000,471,-0.4350,10.4994,5.4245,7.0235,-5.8460,-10.3523,4.2364,1.5551,8.0382,2.3599,3.7611,10.1454,0.5428,4.3473,8.1968,5.3455,0.0
1741737601.888000,472,-4.2869,13.1321,6.1317,3.0594,0.4079,-9.8501,3.4308,2.3330,9.5469,-2.0928,1.5592,11.4302,0.5551,1.3949,3.1081,3.3633,0.0
1741737601.892000,473,-2.3149,13.1127,7.0105,1.1940,5.7057,-8.1417,1.0531,4.1803,8.5529,-3.5766,-0.9053,5.5774,4.2650,-2.9146,-1.2359,4.0335,0.0
1741737601.896000,474,-0.6034,10.0380,0.4527,-1.5238,7.8502,-8.4690,-3.8541,6.4713,5.5822,-6.1395,-1.8728,2.8165,7.3374,-3.9137,-5.5963,-0.1953,0.0
1741737601.900000,475,1.2314,3.4691,-4.0505,-4.9823,11.0070,-5.8145,-6.4966,9.7225,1.6172,-7.7967,-1.3340,-0.4145,8.9272,-2.5727,-9.2398,-0.6611,0.0
1741737601.904000,476,7.3132,-4.5329,-9.8222,-8.1807,9.9791,-0.3393,-5.1009,13.1497,-3.8435,-7.2332,-4.2673,-3.5144,11.8000,0.6900,-8.5759,1.0896,0.0
1741737601.908000,477,12.0192,-8.4021,-9.1678,-9.3672,3.3848,-0.8476,-4.3366,11.3201,-4.8178,-4.5899,-4.3278,-4.5626,10.2915,1.8370,-7.7089,0.8611,0.0
1741737601.912000,478,13.1371,-6.8527,-4.7573,-4.0483,-1.0662,6.0442,1.3288,4.6651,-3.5157,-1.6638,-2.3984,-1.6904,10.5676,2.0503,-4.6102,-1.4736,0.0
1741737601.916000,479,9.4564,-1.5662,-2.6416,4.6282,-5.9487,8.7958,3.9115,2.3826,-0.5656,-2.1855,0.8602,1.7496,10.4086,3.9298,-3.7611,-5.4239,0.0
1741737601.920000,480,7.7016,2.0447,1.9347,10.6044,-6.3381,6.5437,6.3816,-4.3315,1.3974,-2.7016,4.1636,3.1255,11.6536,6.3169,-1.1925,-8.0139,0.0
1741737601.924000,481,1.4010,5.3255,3.6324,7.6410,-5.0861,3.1403,8.0466,-5.8789,0.1660,-5.4677,8.5733,3.3854,8.7899,8.0212,-3.6021,-10.6498,0.0
1741737601.928000,482,-2.1977,3.3901,5.5831,-1.0951,-1.2218,-0.9278,4.1781,-2.7915,1.3890,-0.8757,6.3145,1.0368,7.3127,1.2964,-3.5045,-7.1786,0.0
1741737601.932000,483,-1.7265,1.8954,4.7837,-5.8051,-2.9609,-0.1356,-0.3293,-0.3047,3.4725,-3.6577,-2.8677,0.2468,4.7843,1.3066,-3.5933,-2.9946,0.0
1741737601.936000,484,-0.0868,-2.4715,2.1917,-7.8176,-4.6111,-2.5513,-6.3549,0.6503,4.8736,-2.8285,-8.2994,0.9934,1.6457,-3.1684,-2.8934,-3.6159,0.0
1741737601.940000,485,0.7551,-11.6288,0.2679,-11.8435,-4.7268,0.0595,-6.6996,-0.1362,6.6259,4.4690,-11.7159,2.8876,-2.5862,-0.2376,-2.5338,-4.1500,0.0
1741737601.944000,486,4.7025,-16.5520,-0.7483,-12.2014,-6.4339,3.4676,-8.0078,4.1978,6.3707,5.2759,-6.6029,-0.2339,-2.1311,-2.4944,-2.3521,-2.1136,0.0
1741737601.948000,487,7.2846,-12.1449,0.3429,-11.0887,-7.5271,8.7212,-4.0982,2.6992,7.5622,12.4088,-4.3790,-2.0950,-0.9247,-2.4905,-4.5927,0.0205,0.0
1741737601.952000,488,11.5205,-8.1833,7.9703,-7.3206,-9.3580,10.5310,-4.3728,1.4191,9.4257,14.2519,0.7635,-4.0803,-1.5601,-6.2068,-4.6688,2.6835,0.0
1741737601.956000,489,5.9002,-1.3351,13.0911,-1.8939,-9.4676,6.9947,-1.9285,-3.1268,12.4202,9.8744,1.4984,-6.4371,1.5426,-7.2096,-7.4359,6.6752,0.0
1741737601.960000,490,-2.0545,1.2862,12.0157,0.9436,-9.0360,1.3984,-3.4996,-6.3656,9.8847,5.2338,5.6734,-4.6298,1.4982,-6.9430,-7.6932,8.4805,0.0
1741737601.964000,491,-4.8503,-0.9639,10.1235,0.8496,-2.6981,-5.0950,-4.2710,-5.0957,7.5114,1.3060,3.4504,-4.4074,3.5931,-3.6383,-7.6624,10.9809,0.0
1741737601.968000,492,-8.0624,1.3964,7.9729,-2.2645,0.2389,-11.2801,-3.9656,-5.4404,6.7902,0.3394,-3.3837,-3.6017,5.0170,-2.5633,-3.5252,12.0348,0.0
1741737601.972000,493,-6.1451,-1.9439,3.4667,-5.4502,2.0874,-9.9641,-6.3906,0.0523,8.6067,-0.3288,-13.1417,-3.8348,1.5070,-1.0435,-2.7418,13.9506,0.0
1741737601.976000,494,-1.9615,-4.6635,3.3733,-6.4651,4.7327,-3.9886,-8.0324,-0.3096,7.6858,-0.3737,-16.7704,-3.9859,-1.4995,-1.8276,-1.5021,7.6761,0.0
1741737601.980000,495,-0.5005,-7.8142,-0.0362,-3.9460,2.3282,-2.3947,-9.6359,0.1261,8.2986,-1.8836,-20.1417,1.2798,-3.8595,-3.6025,-1.7268,5.2628,0.0
1741737601.984000,496,-3.6294,-10.2742,-4.6173,-0.2271,3.0597,1.7126,-2.7028,-2.1166,2.7219,-3.6507,-13.2804,0.3012,-4.4710,-4.6926,-4.6414,1.2362,0.0
1741737601.988000,497,-4.0532,-8.7315,-4.1881,1.6234,4.3807,5.9969,1.4557,0.0360,-0.4333,-1.1106,-6.0689,-4.2824,-6.5656,-7.7023,-8.0106,2.3976,0.0
1741737601.992000,498,-5.4909,-4.1083,-6.7365,4.8120,2.9253,7.4578,1.5613,-6.9919,-4.6209,-3.4131,-3.0718,-11.4005,-5.2615,-9.3897,-10.1225,2.1135,0.0
1741737601.996000,499,-7.4946,0.0031,-10.2685,8.6129,0.0255,3.4167,3.9613,-8.1546,-7.5106,-5.2451,-0.4589,-12.5166,-1.0453,-9.8015,-7.8003,1.9606,0.0
1741737602.000000,500,-11.3514,0.6141,-12.3725,12.1810,-2.5938,-1.6426,4.0734,-9.9356,-10.0551,-6.1056,1.0387,-12.9913,0.4881,-5.7307,-7.2357,2.0826,0.0
1741737602.004000,501,-15.2000,0.6250,-11.7633,9.4420,-0.4596,-6.7639,8.1009,-9.1228,-7.5118,-6.3998,1.7671,-8.9383,5.3094,3.1877,-3.7932,-1.0811,0.0
1741737602.008000,502,-12.3830,-3.3435,-10.8565,6.1969,0.3122,-8.8825,7.5623,-4.9946,-8.6297,-5.9525,0.6615,-6.2547,2.7081,7.5470,2.1469,-2.7102,0.0
1741737602.012000,503,-12.0595,-0.9122,-4.8296,3.0681,-0.4864,-8.5234,5.5446,-2.8279,-4.7805,-3.7751,-5.7502,-3.9428,-1.0211,8.4535,4.5350,-3.1846,0.0
1741737602.016000,504,-8.1737,0.9572,-1.7303,4.1239,-2.9579,-6.6004,5.1295,-2.2812,-2.5631,-3.4371,-11.4245,3.9849,-11.0467,5.2647,6.8106,-8.5029,0.0
1741737602.020000,505,-10.9995,0.5068,-2.0132,4.7221,-1.5904,-9.3182,2.4102,-4.3846,2.1882,-0.8392,-10.6124,7.1067,-14.0680,3.3684,2.8421,-10.0158,0.0
1741737602.024000,506,-11.8839,-1.5687,-6.3204,1.5164,2.4058,-11.3204,1.3976,-2.0916,1.7535,-0.8744,-8.0823,11.4802,-14.0032,-0.9790,4.0625,-11.9176,0.0
1741737602.028000,507,-7.5123,-3.3688,-12.9825,-3.0410,6.3837,-10.6517,1.7242,-2.3066,-1.7389,0.5178,-3.3016,1.6133,-12.4069,-3.9986,-1.0446,-7.5135,0.0
1741737602.032000,508,-3.0381,-1.9686,-16.9833,-5.7362,6.8389,-10.8733,-1.0123,1.9529,-3.1265,0.7844,-0.3723,-8.0503,-5.1407,-7.3972,-2.3581,-3.4884,0.0
1741737602.036000,509,4.8223,-0.7427,-16.5471,-5.1104,2.3322,-9.9812,-4.2606,1.9732,-3.6481,1.0795,0.5801,-10.3883,-0.9992,-5.4287,-7.1192,5.1571,0.0
1741737602.040000,510,7.6752,0.1099,-15.5782,-4.5466,-2.5008,-9.4385,-5.2798,4.0698,-0.4101,-0.9128,-3.3574,-10.2616,1.9597,-1.2599,-6.4421,7.3001,0.0
1741737602.044000,511,6.0775,-0.1795,-12.2156,0.1458,-4.0885,-12.0165,-3.8159,4.8637,-0.8003,-4.3436,0.8003,-4.3803,4.8321,3.0457,-5.3390,7.5575,0.0
1741737602.048000,512,3.3168,1.4855,-9.5483,2.3294,-4.3044,-12.1379,3.7794,5.0905,3.3742,-6.9593,1.8743,-1.3289,3.8623,6.6037,0.7902,4.3582,0.0
1741737602.052000,513,0.2853,3.8903,-4.2360,4.4387,-4.7499,-12.6771,2.7394,7.2984,3.8084,-9.7115,-1.8173,4.1874,0.9065,4.7309,1.9821,2.8305,0.0
1741737602.056000,514,-6.2670,8.5815,-0.5124,3.6000,-0.5876,-10.6532,2.0362,7.5444,7.0978,-10.9239,-4.7384,7.0086,-0.6747,1.2031,-0.9306,-1.3422,0.0
1741737602.060000,515,-7.3225,6.9350,-4.9846,-0.4449,2.5998,-12.0377,-0.0905,5.2120,8.3434,-12.1880,-9.3997,7.1777,-4.6246,-1.8750,-7.6388,-1.7459,0.0
1741737602.064000,516,-10.2616,1.9451,-10.6854,-0.8162,6.5209,-14.4637,-2.2831,7.4155,3.5459,-12.8729,-10.1811,5.4205,-1.6779,-3.4023,-10.5959,-2.5968,0.0
1741737602.068000,517,-7.9213,-7.3513,-16.6839,-4.4533,7.4904,-13.2021,-2.0619,9.1564,0.3328,-14.8833,-11.8822,-2.3992,2.8063,-5.8920,-13.2087,-2.7701,0.0
1741737602.072000,518,-0.2296,-12.6129,-19.3005,-10.5952,4.6182,-8.6141,-4.5602,10.5316,-4.6922,-11.1832,-11.6862,-10.3400,6.1824,-6.1304,-13.2894,-2.9923,0.0
1741737602.076000,519,3.6242,-15.3459,-18.0369,-12.1129,-1.2341,-3.1257,-5.8465,8.9200,-5.9538,-8.8413,-15.3834,-15.3837,5.4664,-6.1570,-14.9279,-3.9945,0.0
1741737602.080000,520,3.0778,-14.8155,-16.3280,-5.4894,-7.0848,1.1719,-0.9936,2.5383,-4.2631,-6.2776,-15.1268,-14.4570,5.0033,-5.6730,-15.4540,-2.2991,0.0
1741737602.084000,521,-0.2568,-13.0464,-11.0318,-3.1784,-13.8648,2.1765,3.6645,-2.8962,-4.1794,-6.4270,-10.0572,-11.5100,3.9570,-1.8216,-12.1288,-4.3548,0.0
1741737602.088000,522,-9.8159,-10.2753,-5.4405,1.7085,-15.5718,0.8098,8.0992,-8.9251,-3.8850,-3.6304,-3.4582,-9.1706,5.0365,1.1027,-6.8206,-3.9549,0.0
1741737602.092000,523,-17.2342,-5.9983,1.3835,3.6168,-15.5068,-0.4463,8.6548,-9.9308,-2.4157,-5.6948,-4.9491,-8.4959,7.2562,1.4046,-7.1394,-3.4595,0.0
1741737602.096000,524,-16.6750,-2.4787,3.8641,0.4365,-10.3934,-4.5278,4.8184,-13.1620,-1.7919,-4.4238,-4.3385,-9.4432,4.7298,-1.4745,-6.8529,-1.3991,0.0
1741737602.100000,525,-16.7397,-2.9203,2.2936,-3.4572,-6.9567,-8.5845,-3.0225,-13.7244,1.9931,-4.5269,-9.5795,-6.6625,2.7838,-2.7600,-4.2781,-0.9246,0.0
1741737602.104000,526,-13.7584,-9.1068,-1.4643,-9.0984,-8.7396,-11.6071,-6.8872,-8.3867,2.6753,-4.2300,-12.3440,-2.4872,-2.6373,-4.4804,-5.6250,-4.5185,0.0
1741737602.108000,527,-9.5834,-16.5076,-8.9385,-16.8703,-8.7228,-11.3905,-11.2901,-5.9095,3.7336,0.6324,-17.0015,-4.1550,-3.3266,-4.2029,-5.1136,-2.1360,0.0
1741737602.112000,528,-3.1093,-20.7315,-9.0502,-18.3869,-10.6280,-7.8722,-11.8849,-2.8050,2.6983,5.4455,-16.2045,-5.0025,-2.4873,-7.5433,-6.2811,-2.8857,0.0
1741737602.116000,529,1.4548,-20.7554,-10.3529,-16.8996,-14.6849,-4.3487,-13.4080,-3.0159,5.5158,6.9726,-18.4623,-9.0269,-7.1765,-12.2778,-6.9803,-0.8384,0.0
1741737602.120000,530,3.9147,-13.1183,-7.2137,-11.1673,-19.4057,-0.9059,-13.5795,-6.3335,5.2715,4.5367,-15.4508,-7.0902,-7.8567,-12.7043,-10.5776,-1.1080,0.0
1741737602.124000,531,0.7564,-8.8523,-5.5455,-3.3016,-20.3897,-2.8355,-10.9055,-8.9791,1.2496,3.1538,-8.4469,-10.4550,-6.0704,-15.4254,-13.2024,3.5390,0.0
1741737602.128000,532,-6.1233,-5.3439,-5.2732,1.5495,-21.1601,-6.2961,-7.6685,-10.6462,1.3436,-0.5242,-1.2875,-12.3112,-3.3744,-19.7917,-17.1479,4.8739,0.0
1741737602.132000,533,-12.3393,-2.5329,-5.2538,1.8060,-16.5034,-11.6139,-4.9434,-9.6693,0.5225,-6.7386,-1.3528,-14.2955,0.9715,-19.1042,-15.4139,7.0363,0.0
1741737602.136000,534,-15.3160,0.0612,-1.2446,1.3578,-13.2377,-12.6869,-9.9126,-6.6940,-1.4124,-11.0305,-4.6783,-16.9608,3.6789,-16.5174,-16.4012,2.7781,0.0
1741737602.140000,535,-15.0876,-2.9262,0.2352,-1.2206,-10.3552,-16.3491,-12.4451,-2.1816,-3.2034,-12.9844,-9.5007,-15.8760,1.4515,-12.4005,-14.8238,4.4187,0.0
1741737602.144000,536,-14.4740,-9.8629,-1.3327,-7.1952,-4.6638,-17.1318,-16.2832,2.4682,-1.8965,-13.5529,-13.5515,-11.6587,-2.6533,-9.4941,-12.5696,3.1787,0.0
1741737602.148000,537,-14.3823,-16.7654,-2.9780,-10.6931,-2.5978,-17.4268,-14.8775,2.1658,-3.2296,-13.4760,-16.7780,-7.3533,-5.7237,-8.8311,-10.7512,-2.6760,0.0
1741737602.152000,538,-12.0439,-19.1907,-5.1480,-9.9783,-3.3046,-13.8335,-12.5823,2.3137,-6.6901,-13.3464,-14.4313,-5.1245,-9.4783,-11.5407,-10.3056,-5.7697,0.0
1741737602.156000,539,-9.3749,-19.4725,-7.7890,-7.1819,-2.1574,-3.7750,-10.5076,-0.3467,-5.6668,-9.2694,-13.5470,-4.6965,-10.1170,-14.2725,-11.4459,-9.6560,0.0
1741737602.160000,540,-9.0488,-19.7241,-9.6944,-2.3773,-1.2032,-2.1793,-7.6130,-5.1546,-8.7651,-10.9141,-9.0753,-9.1336,-9.8622,-16.1080,-17.7471,-11.9214,0.0
1741737602.164000,541,-9.9126,-13.4047,-12.5525,-1.6585,-2.6158,-0.2687,-6.8276,-9.7693,-9.9454,-10.8341,-4.3571,-11.2651,-9.8193,-16.4519,-20.1824,-11.0656,0.0
1741737602.168000,542,-12.3108,-13.1283,-16.6604,0.6738,-2.5377,-2.7640,-1.4757,-14.2570,-12.1989,-11.7810,0.6214,-15.1112,-6.2447,-12.7660,-17.4113,-8.7375,0.0
1741737602.172000,543,-11.6213,-10.5249,-15.0111,-2.6638,-5.5632,-5.5465,-0.2090,-13.3460,-13.8205,-9.5694,3.6147,-16.3986,-1.0828,-8.3412,-12.2324,-6.3374,0.0
1741737602.176000,544,-9.9013,-8.5378,-13.2299,-4.0181,-9.4477,-4.0952,1.6034,-15.2076,-11.8959,-10.0994,3.4279,-13.5097,-0.2803,-2.0776,-6.7758,-7.1793,0.0
1741737602.180000,545,-9.3543,-8.8754,-5.6257,-3.9575,-14.9138,-3.1552,-0.5252,-16.2788,-6.7039,-6.8464,3.1593,-6.1352,-5.6230,4.3885,-1.5912,-7.0839,0.0
1741737602.184000,546,-12.8995,-7.8060,-1.5868,-3.2256,-12.5075,-3.4090,-0.8485,-13.4336,-2.0543,-3.4787,1.5115,3.3888,-11.2614,5.1275,3.4570,-8.6434,0.0
1741737602.188000,547,-13.2548,-5.2563,0.0797,-5.9174,-11.2332,-2.6010,-0.2468,-12.7933,4.6546,2.0055,2.5089,10.3019,-17.3922,2.5604,4.2817,-9.9579,0.0
1741737602.192000,548,-14.0155,-5.5900,1.6518,-7.1967,-9.8945,-4.6797,-1.8850,-10.5033,4.0890,4.9875,5.8505,10.9327,-19.9376,-0.9994,7.0970,-11.2918,0.0
1741737602.196000,549,-10.5774,-3.9234,-1.7118,-10.5894,-6.1741,-6.7233,-5.7198,-9.4528,7.0626,7.8169,8.4686,11.2039,-21.1381,-2.7584,4.5061,-10.1527,0.0
1741737602.200000,550,-5.1210,-3.1539,-2.7997,-16.0910,-4.0398,-7.6725,-10.6794,-9.5977,4.1295,8.1348,5.3578,2.8885,-19.0782,-6.7107,-2.1142,-8.6729,0.0
1741737602.204000,551,-1.1305,-7.4278,-4.6304,-19.1099,-3.4783,-11.6334,-15.2133,-7.0826,1.7611,7.0454,6.5789,-1.0908,-16.7120,-6.2900,-5.9068,-4.9068,0.0
1741737602.208000,552,2.6397,-10.3026,-7.3117,-21.2231,-7.9255,-11.0152,-16.0213,-7.3908,-1.3538,7.6202,2.3574,-3.7705,-12.0308,-7.9827,-3.3126,-0.8558,0.0
1741737602.212000,553,7.4259,-7.1828,-5.1717,-17.5785,-12.9407,-9.5523,-14.6805,-7.0496,-5.0308,7.6845,0.2760,-6.4330,-8.0276,-6.1163,-5.4209,-0.0318,0.0
1741737602.216000,554,4.7689,-4.9930,-0.7188,-9.2120,-18.9006,-5.2082,-11.5327,-5.7564,-4.7079,6.0517,-0.3546,-4.0148,-7.6363,-6.2167,-1.5124,-2.1541,0.0
1741737602.220000,555,3.8525,-0.8889,6.0084,-4.6075,-14.5109,-1.7431,-9.6229,-9.5987,-2.5716,5.0305,-0.2028,-1.3238,-6.1167,-4.0461,-2.8091,-3.7357,0.0
1741737602.224000,556,-2.6066,1.3033,11.6879,-1.5652,-9.3378,-0.4152,-8.3320,-8.0738,-2.0144,0.8934,3.5087,0.1394,-6.4357,-1.1436,-4.3828,-5.7616,0.0
1741737602.228000,557,-5.5876,7.0260,12.2090,-5.6669,-1.4616,-2.4296,-8.8720,-5.8338,-4.9952,0.2366,4.9218,2.5730,-6.6278,-3.7189,-4.9832,-6.1663,0.0
1741737602.232000,558,-6.0917,5.3533,9.7902,-8.6034,0.1930,-1.2445,-10.8879,-5.0346,-8.0794,-3.1419,3.3790,-1.5619,-4.3368,-2.4219,-5.1468,-9.2013,0.0
1741737602.236000,559,-4.1025,-0.8872,5.1637,-13.0467,3.3970,-3.7212,-14.2235,-1.2734,-11.8728,-6.2061,3.7925,-1.2701,-4.1779,-5.6993,-4.8347,-7.8190,0.0
1741737602.240000,560,-0.8245,-9.6024,-3.4432,-13.8282,5.2561,-1.7732,-17.3583,-1.9256,-14.2074,-3.7663,-0.6904,-0.1324,0.0933,-4.7396,-7.4589,-10.4382,0.0
1741737602.244000,561,4.5372,-13.8577,-6.0320,-14.4442,5.0660,0.3551,-16.4007,-0.1215,-17.3574,-0.5226,-1.6499,-1.2633,-2.6262,-1.4166,-5.9076,-13.1324,0.0
1741737602.248000,562,11.9637,-14.8654,-5.7624,-12.9395,0.6054,6.6037,-12.8962,-0.2139,-15.8027,1.6485,-0.2724,-1.0708,-5.9284,-1.8757,-5.3376,-14.1979,0.0
1741737602.252000,563,14.4770,-12.4055,-2.9586,-9.0673,-3.3058,9.2772,-7.3808,-4.3874,-13.8348,4.5214,0.2213,-0.2957,-6.6947,-1.9284,-2.1985,-15.6410,0.0
1741737602.256000,564,10.1368,-4.3530,0.7799,-3.2271,-8.5872,14.0931,-2.5081,-10.5108,-11.1774,7.2319,4.7999,2.3076,-8.1569,1.8713,-0.3765,-16.6568,0.0
1741737602.260000,565,5.8385,1.5380,8.8923,1.9163,-10.2781,10.9730,0.2181,-13.6465,-12.4331,2.6895,12.8142,4.8550,-9.1348,1.6210,-2.6164,-19.0349,0.0
1741737602.264000,566,1.3133,3.4393,10.5354,1.3163,-7.0221,11.6983,0.1931,-13.7872,-13.1449,2.4613,17.6051,5.6039,-7.2455,2.9121,0.9589,-15.1449,0.0
1741737602.268000,567,-3.4248,5.8383,15.2058,-2.1399,-4.5208,10.1116,-0.3688,-12.8690,-10.2942,2.0789,19.7418,5.8528,-9.0492,3.3148,-0.6441,-11.9047,0.0
1741737602.272000,568,-2.3960,4.1494,13.7997,-4.6843,-0.9204,6.0189,-3.0419,-8.9698,-6.4989,2.5507,14.8681,4.2577,-8.4096,0.8168,1.9667,-5.8873,0.0
1741737602.276000,569,-0.3578,3.3449,14.5055,-9.6710,-0.2292,4.5622,-7.6802,-7.9730,-3.4905,5.6280,10.2532,6.9947,-8.2244,2.0666,4.6288,-6.1358,0.0
1741737602.280000,570,3.4656,-1.6779,11.3502,-12.8266,1.5307,5.3782,-8.9475,-3.0642,-0.7391,8.4728,9.6562,8.9295,-10.3638,6.8273,9.1893,-4.5205,0.0
1741737602.284000,571,9.3830,-4.8399,10.9906,-15.6783,3.0608,6.2887,-9.9627,-0.1249,1.1082,11.7881,10.5088,12.1536,-12.1504,8.1310,8.1917,-4.7781,0.0
1741737602.288000,572,13.3087,-4.9859,15.6830,-17.2323,4.3200,8.0538,-10.9732,0.0113,2.1785,13.8065,11.2724,13.9694,-14.4289,9.4386,8.2205,-0.8927,0.0
1741737602.292000,573,12.0578,-0.4589,19.1165,-14.7628,3.9074,7.2646,-10.2643,-0.4239,2.9874,12.9113,12.5550,12.8054,-14.5931,3.8633,6.5422,2.8635,0.0
1741737602.296000,574,10.8962,3.9346,19.9847,-6.6710,4.2046,7.4917,-7.1401,-2.7237,2.3585,10.9679,10.2428,12.1393,-13.2257,0.5505,5.6588,2.3503,0.0
1741737602.300000,575,7.3256,9.1422,15.4385,-2.0886,2.7000,5.0135,-5.6011,-5.3190,-0.7212,6.7171,10.1828,9.8182,-10.3027,-0.2224,4.7109,6.7884,0.0
1741737602.304000,576,6.9127,10.2903,10.8565,-1.1455,6.6616,4.2345,1.1306,-4.4548,-4.3445,7.1572,8.6106,9.1585,-5.8687,0.5575,3.5074,4.4143,0.0
1741737602.308000,577,4.7861,10.7044,4.3259,-1.5165,11.2669,3.8159,-1.2856,-3.1590,-5.6759,2.5714,8.2948,5.7242,-0.9762,4.4970,3.2349,7.2801,0.0
1741737602.312000,578,10.7268,12.1075,7.2157,-7.1010,11.6312,9.9792,-1.9508,1.9554,-4.1888,3.5122,7.3176,3.7201,0.2886,9.8304,3.8754,8.8480,0.0
1741737602.316000,579,12.2139,11.4593,10.7754,-4.0537,8.9805,13.5514,-1.1841,1.0443,-3.6671,3.2225,7.5043,8.1385,1.1668,11.3305,8.0905,5.2444,0.0
1741737602.320000,580,11.3195,10.0986,12.1022,-1.5039,4.5685,13.8560,-3.0138,4.2523,-6.2025,2.1593,10.7426,9.7838,-1.7360,12.8560,9.6603,-0.5284,0.0
1741737602.324000,581,6.2710,6.4221,10.9468,1.5778,4.5761,11.5671,0.9195,1.9313,-9.5759,3.0341,12.6473,14.2897,-2.8108,13.7939,10.8670,-1.2470,0.0
1741737602.328000,582,3.9388,6.9281,10.1921,1.3729,7.8362,10.2938,4.8700,3.0819,-9.5750,4.7321,15.8751,17.9272,-3.4141,12.5238,9.3490,-2.3927,0.0
1741737602.332000,583,4.7277,9.2277,9.8548,3.3170,9.8096,7.9881,7.6379,-0.3476,-9.8046,6.5750,13.8002,11.4620,-2.8705,7.4617,7.0136,-5.1708,0.0
1741737602.336000,584,6.7796,13.2544,3.9414,-0.9072,9.2390,5.0725,3.8720,-2.6324,-10.4087,5.5864,13.3688,9.3142,-3.0553,6.2597,6.5730,-6.3862,0.0
1741737602.340000,585,7.9330,12.0786,1.5477,-0.0793,11.6479,5.2047,4.4606,-2.8294,-10.5309,4.5240,8.2172,9.1078,-0.6897,6.6267,5.5706,-8.2093,0.0
1741737602.344000,586,14.4475,7.5459,-0.2307,-3.7094,8.7775,4.8282,0.8785,-1.0258,-11.3515,5.5581,6.9045,7.1446,0.9884,14.5005,7.3756,-8.4671,0.0
1741737602.348000,587,19.2495,6.0029,3.4460,-2.1716,8.0545,6.5428,0.6590,3.7062,-11.9034,6.6194,6.5229,9.9349,-0.3157,15.5284,5.1130,-7.6431,0.0
1741737602.352000,588,16.7747,7.7974,9.3597,-4.2299,3.3449,11.2706,1.0145,5.1998,-8.6174,8.2506,5.3811,9.7208,-0.7795,14.5785,9.8576,-3.6124,0.0
1741737602.356000,589,14.8803,7.9846,14.8456,-1.0370,-2.7958,11.9255,2.1258,4.5917,-4.9676,9.6798,2.4394,12.0312,-2.8175,10.3464,10.0147,-0.1598,0.0
1741737602.360000,590,11.4611,15.3850,20.4391,5.7035,-2.5402,13.9422,1.6917,-0.0444,-2.1554,8.8194,7.6031,16.8917,-2.3009,9.1482,8.7751,-0.9583,0.0
1741737602.364000,591,9.4314,14.9414,15.6617,7.6319,2.4730,11.5331,4.3965,-2.1391,-1.4229,7.8948,17.2193,15.6269,4.0480,9.4398,9.5514,-0.7000,0.0
1741737602.368000,592,9.0549,14.5840,9.8393,3.3269,11.6318,9.0457,4.1685,2.7854,-1.1853,6.4051,21.7004,13.0454,5.6946,10.1355,6.2885,1.7293,0.0
1741737602.372000,593,14.0499,14.4604,9.1099,-1.9064,13.0360,4.3503,0.0503,8.3970,0.7193,6.5852,21.4216,9.5107,11.6800,11.3021,4.4772,7.7306,0.0
1741737602.376000,594,17.5581,13.9892,10.3781,-6.8938,13.3484,3.2799,-1.4234,12.6838,4.6852,5.0319,12.4417,7.7177,8.2512,10.1915,3.4620,10.4492,0.0
1741737602.380000,595,16.8700,8.0831,12.3019,-4.5651,10.6283,1.7467,-5.9856,13.9140,6.0076,2.0616,3.6752,9.9734,6.8668,11.7745,2.6340,11.4923,0.0
1741737602.384000,596,15.1321,1.8755,9.2136,-0.3359,5.8279,0.5238,-2.8614,13.1527,5.6536,2.3649,-3.8006,16.9403,2.5746,12.9984,7.2611,10.6740,0.0
1741737602.388000,597,14.9512,3.1246,8.3854,5.3090,7.1527,1.1613,2.1761,9.8237,2.7615,1.6707,-3.9823,17.9927,2.0419,8.4421,5.4741,6.4806,0.0
1741737602.392000,598,14.0517,6.4500,8.1584,8.8257,8.2982,10.0270,4.4294,8.8033,3.1596,2.8265,-1.8238,17.0397,2.1186,7.6712,2.6538,5.6928,0.0
1741737602.396000,599,12.3148,12.2697,8.2765,8.2819,9.8577,16.7290,9.4628,7.5671,5.2644,3.9996,0.2852,12.2753,2.1688,2.7434,1.3042,3.8509,0.0
1741737602.400000,600,8.2549,16.2250,7.4755,11.3213,7.8502,17.6614,7.6819,5.9573,2.8274,0.3148,5.3219,5.7466,4.3367,1.3793,-4.5362,5.9680,0.0
1741737602.404000,601,3.3967,14.4269,4.8326,11.7311,10.3644,16.6673,8.5665,3.5405,-0.6795,-2.4312,8.3098,1.7700,9.3271,5.5270,-4.8323,4.5033,0.0
1741737602.408000,602,-1.1799,9.1990,3.3649,7.3699,10.3865,11.9658,9.6195,5.1292,-5.1166,-5.2254,11.1706,-1.8459,12.6444,10.4585,-6.0053,9.6279,0.0
1741737602.412000,603,1.8296,5.7191,5.4657,4.8134,7.9137,8.7055,8.3961,7.7783,-5.5972,-0.3754,11.4161,-1.1336,14.6009,13.1443,-0.1194,11.8931,0.0
1741737602.416000,604,4.4602,2.2064,8.0751,3.8012,5.1455,7.6853,6.5719,9.8421,-1.8592,5.9413,5.3812,1.9434,12.9857,15.0724,4.2060,11.3587,0.0
1741737602.420000,605,4.5191,2.1982,9.1147,4.1308,5.6269,5.6683,6.0366,6.7173,3.4693,6.7767,-1.4672,7.9335,7.8812,14.9800,8.4462,8.0459,0.0
1741737602.424000,606,3.4189,3.2206,8.7198,9.7056,3.8527,5.0076,10.0200,3.5593,4.7210,5.9730,-3.2136,14.1429,2.9243,15.9915,12.8563,2.8699,0.0
1741737602.428000,607,2.7846,3.8866,6.5340,8.2072,7.0077,2.5482,12.0959,-1.1992,7.0305,9.6964,3.0712,13.9626,3.4095,13.3908,10.7806,-2.4718,0.0
1741737602.432000,608,0.9089,5.1427,5.9485,4.8563,10.4168,5.3798,9.9486,2.2850,8.3344,8.7275,2.8486,9.5144,2.4829,8.9787,9.7606,-1.2679,0.0
1741737602.436000,609,4.0035,5.8550,4.6863,3.4094,9.0599,6.0065,7.3723,1.4365,8.1519,9.0572,-0.1795,5.0865,0.6272,5.8341,2.6013,4.6389,0.0
1741737602.440000,610,6.2573,4.4403,2.5717,1.4878,6.6345,6.5886,4.0983,3.3418,6.0052,6.6266,-3.0710,0.0399,1.8752,0.2871,0.9278,4.1081,0.0
1741737602.444000,611,3.4968,3.4272,-2.9664,6.3583,3.1309,4.8651,4.1437,0.4745,5.3464,4.7357,-1.6697,0.4672,4.8279,2.9097,-0.8656,10.6475,0.0
1741737602.448000,612,5.8150,0.8617,-6.5243,7.5273,1.2195,4.3257,4.4357,4.4728,4.8498,7.2524,1.9347,0.6228,8.7224,0.3534,1.0520,12.1777,0.0
1741737602.452000,613,7.8295,5.2606,-6.2579,10.2299,0.5752,5.9061,7.0568,6.0669,4.6093,6.4248,5.3726,2.0167,11.5333,4.2653,3.6774,12.4544,0.0
1741737602.456000,614,9.9296,9.2225,1.5073,11.7018,-0.9818,5.8556,7.0853,7.4180,10.7560,8.6329,8.1944,0.1078,12.9216,6.5230,2.1000,10.5713,0.0
1741737602.460000,615,4.7434,12.9027,7.4532,11.6495,-1.9331,6.0524,6.9447,6.8025,11.5535,6.0220,9.8774,0.3177,9.9903,7.1827,3.9210,8.6319,0.0
1741737602.464000,616,0.5705,15.4002,10.4284,14.4292,1.6475,-1.8102,5.0169,9.0060,13.1972,0.5104,7.3328,5.9287,5.3435,5.1738,1.9150,9.2151,0.0
1741737602.468000,617,-4.9949,11.7911,6.0561,13.7351,4.5861,-11.3734,4.1181,9.2165,9.0319,-3.0712,5.2415,9.5739,4.6322,5.6287,1.3303,9.2909,0.0
1741737602.472000,618,-9.8743,8.1179,2.1653,9.8224,11.0623,-18.9762,5.7068,10.5236,6.2013,-4.3532,-2.1875,7.7149,5.4538,-0.5242,0.7363,5.9670,0.0
1741737602.476000,619,-3.9290,0.6365,-6.6076,6.0508,14.2422,-15.6914,5.1358,13.8512,4.1334,-3.4394,-10.9837,3.4549,4.4520,-3.4573,-0.3293,3.7659,0.0
1741737602.480000,620,2.9654,-0.6889,-9.2834,4.7559,12.5330,-8.6067,1.3592,13.2499,3.4097,-0.3186,-14.4805,-0.9889,5.2585,-3.3306,-6.3862,2.2098,0.0
1741737602.484000,621,8.7506,-1.7194,-14.0008,7.3331,12.2076,0.5292,1.7462,12.0590,2.5794,-3.6422,-14.2372,-1.8857,7.7205,-3.3900,-8.8600,0.9961,0.0
1741737602.488000,622,9.2909,-2.5448,-11.9543,8.8859,6.0009,7.9409,4.4744,11.0108,1.4018,-2.7383,-6.8829,-4.0782,11.1095,-0.9990,-7.4728,1.3011,0.0
1741737602.492000,623,6.2295,-2.8181,-6.3162,10.7554,2.6683,9.2643,10.2592,9.4149,-4.0959,-2.0872,4.4504,-4.7665,12.0891,4.5240,-3.8806,0.0086,0.0
1741737602.496000,624,1.2077,-0.8776,2.0806,14.9236,0.8617,10.0677,15.0466,3.0442,-2.1680,-1.9262,11.6766,-5.5762,12.4886,3.6067,-1.1214,2.0710,0.0
1741737602.500000,625,-4.0758,5.0638,7.8838,20.2007,-0.9789,6.8574,16.4682,2.0450,-0.2973,-4.6493,12.3860,-3.1265,12.1669,5.3549,-1.9521,2.8209,0.0
1741737602.504000,626,-9.4301,8.3037,6.5022,19.2441,0.7628,0.6799,14.4397,-4.3877,0.5965,-6.2885,13.4188,1.8964,9.8154,6.4477,0.2743,5.9450,0.0
1741737602.508000,627,-9.8423,7.4307,0.7518,15.8789,4.7862,-10.3611,10.3407,-2.4898,2.9595,-5.7159,8.8138,6.0894,11.7374,6.7389,6.8353,4.5127,0.0
1741737602.512000,628,-5.5885,3.3962,-2.1504,8.6458,9.4176,-10.6810,10.1204,3.4949,8.3499,-2.4192,6.4040,9.0410,9.7690,9.7932,9.1976,1.8724,0.0
1741737602.516000,629,2.0678,-0.6492,-2.6120,-0.0719,10.7255,-8.3847,5.6583,7.3660,10.3825,0.9034,0.0069,9.6919,5.7015,11.4636,9.6104,0.4767,0.0
1741737602.520000,630,4.1670,-4.2882,-1.4218,-4.5996,8.1183,-2.0763,1.5242,12.3157,14.4632,2.5728,-4.5880,8.9101,-0.4710,10.0563,6.2063,1.0475,0.0
1741737602.524000,631,8.3367,-7.5966,-1.5497,-2.9680,3.9446,3.0602,-0.9161,7.6670,11.6889,5.4084,-9.4994,9.6665,-5.6235,3.3681,4.8913,0.4879,0.0
1741737602.528000,632,4.7635,-4.1205,-0.9468,1.7500,-1.3604,4.3789,2.1966,3.8692,9.1752,6.2247,-4.0428,12.0592,-7.8240,-1.2268,2.2660,-0.5182,0.0
1741737602.532000,633,4.3295,-1.0124,-5.1079,5.5557,-4.4396,3.6682,7.7171,1.2615,5.6452,7.1915,2.9508,7.1350,-1.9267,-5.4917,1.3725,5.3051,0.0
1741737602.536000,634,1.1823,5.5154,-2.0840,10.3275,-4.9398,6.9235,10.0914,-1.6059,4.7785,5.5491,7.8539,-2.1067,6.7600,-9.0077,-2.7310,8.4244,0.0
1741737602.540000,635,2.4756,10.9885,-0.9171,11.4024,-2.0052,8.1241,9.1597,-1.4726,2.9680,-0.8044,15.9077,-7.7106,13.5052,-4.3089,-4.1111,12.7211,0.0
1741737602.544000,636,-0.7313,12.7719,1.4652,9.2092,-2.7026,0.9133,5.3598,-0.9330,3.4860,-1.5652,13.4356,-9.0198,15.5429,1.2659,-3.1715,12.9504,0.0
1741737602.548000,637,-2.3148,11.1810,7.3190,3.8577,-2.9419,-2.4252,2.7141,2.3125,4.9703,-3.4001,10.9350,-4.7456,14.5469,7.5439,-0.3974,13.5817,0.0
1741737602.552000,638,-3.8879,5.8835,8.0280,1.6069,-0.8846,-8.7858,-0.2202,6.7221,4.9781,-3.8673,0.7658,0.2189,12.3800,13.8298,5.4992,9.8152,0.0
1741737602.556000,639,-4.6907,-0.0175,9.9483,-1.0263,0.2557,-11.2451,-0.8204,9.4029,7.2649,-4.3276,-5.1290,6.7908,7.8078,10.6783,11.1530,8.2547,0.0
1741737602.560000,640,-2.5563,-4.1861,9.5387,-0.9308,3.4644,-10.2569,-0.8643,7.9429,6.4425,-2.4180,-10.7654,12.4631,1.6996,5.6441,7.7727,-0.1777,0.0
1741737602.564000,641,0.0024,-4.4650,4.1066,-3.0489,6.8781,-4.9931,-0.8678,3.8673,7.9963,-1.4511,-13.7387,12.9978,-3.1067,-1.7220,2.5472,-6.3840,0.0
1741737602.568000,642,0.8154,-2.9194,-4.4631,-1.6655,6.5621,-0.5146,-2.2697,0.4570,3.4220,0.1264,-9.4958,7.5903,-4.4875,-6.3619,-3.5104,-7.9195,0.0
1741737602.572000,643,6.9003,-3.5937,-11.0955,-2.6137,6.6087,4.8376,-1.0974,0.3057,0.1203,-1.5707,-4.2336,-0.1544,3.7820,-9.5441,-8.5069,-7.1330,0.0
1741737602.576000,644,10.5974,-5.9848,-13.5704,-1.6436,2.1770,7.8834,1.4313,-1.9300,-6.1133,-1.1072,2.5809,-10.4219,10.1819,-6.7865,-11.4333,-4.9306,0.0
1741737602.580000,645,13.9010,-3.1772,-12.7032,-0.8279,-3.9609,8.5604,-0.0800,-3.6103,-7.4871,-3.6681,6.7320,-15.1780,14.6697,-4.6542,-11.5777,0.5533,0.0
1741737602.584000,646,10.0822,-2.9427,-5.5757,4.2800,-9.3311,7.7716,4.1674,-1.1303,-7.0743,-3.1442,8.2411,-14.8342,13.9284,0.4778,-7.6925,3.7301,0.0
1741737602.588000,647,5.8066,0.0442,2.1557,5.9478,-11.0725,5.2539,3.6889,-2.5996,-3.9411,-3.2640,7.9715,-5.5815,11.7391,6.6259,-2.0151,1.9878,0.0
1741737602.592000,648,-0.8255,0.9265,8.9908,8.7828,-12.8177,1.6604,7.6257,-2.4056,-0.2541,-3.4664,7.8256,4.7243,10.0871,7.1470,4.6324,0.9671,0.0
1741737602.596000,649,-6.0270,5.7364,12.4692,8.4227,-9.9788,-3.5577,7.0612,-1.6598,6.8971,-0.4452,7.9453,11.0771,5.4939,5.6622,10.0657,-3.5766,0.0
1741737602.600000,650,-5.8332,6.2196,11.6296,3.5358,-2.7149,-4.0647,3.3392,2.8604,13.3534,2.1758,4.2530,13.2361,2.3490,5.4735,7.4770,-4.7763,0.0
1741737602.604000,651,-6.9778,0.8798,8.2706,-5.5347,6.5358,-6.6460,-3.9846,4.5932,12.3314,-1.0648,1.0348,12.0384,-4.7576,1.8227,3.0110,-6.3341,0.0
1741737602.608000,652,-5.6573,-5.6522,4.0899,-13.6059,9.4373,-5.1483,-8.1355,6.5071,10.5660,3.2261,-4.2678,8.4145,-6.4918,-4.3610,-3.3621,-3.6531,0.0
1741737602.612000,653,0.7785,-11.3627,-1.8912,-17.9572,10.7772,-7.3727,-11.0917,8.0767,8.8093,3.5784,-9.9350,5.5524,-4.6506,-9.0226,-7.6579,0.9034,0.0
1741737602.616000,654,7.6321,-14.8863,-7.7864,-17.3819,4.3638,-3.7855,-10.4067,5.3401,5.4253,7.3902,-12.8292,-0.8613,-2.9995,-11.3735,-7.0048,5.6917,0.0
1741737602.620000,655,10.4177,-15.8520,-9.2666,-8.5759,-3.0804,4.5804,-6.9616,5.4760,3.4312,5.4996,-10.9451,-6.3658,0.6301,-8.9485,-8.6893,3.1875,0.0
1741737602.624000,656,14.2326,-10.1488,-5.5180,-2.3998,-8.2902,9.5947,-0.7376,0.0428,0.7797,7.1297,-6.0396,-7.3810,4.0290,-2.2427,-5.7400,6.7993,0.0
1741737602.628000,657,9.1297,-0.5169,2.3282,4.4599,-7.1340,13.0810,5.2120,-5.3964,3.2797,5.3408,5.7384,-8.2560,7.1591,-1.9089,-5.2405,6.3774,0.0
1741737602.632000,658,-1.3172,5.1920,9.6192,8.3910,-9.8503,8.6032,7.6835,-8.8002,5.0607,3.1878,11.8082,-3.0137,8.8766,4.2362,-7.1896,8.3988,0.0
1741737602.636000,659,-10.2350,10.9089,13.5946,8.8809,-4.9836,7.0148,6.6519,-8.8313,5.7986,-2.4190,9.7165,-3.4646,7.4264,4.7024,-3.6427,9.3492,0.0
1741737602.640000,660,-16.0673,12.1745,14.6799,6.1562,0.1397,-3.6780,4.9103,-8.2277,6.4326,-6.8915,5.3929,1.5179,5.4323,5.7230,-0.0469,6.3308,0.0
1741737602.644000,661,-18.3986,4.7730,9.6814,-2.2322,7.2389,-10.0846,-2.0206,-3.7418,6.3044,-7.1187,-5.0855,8.4856,1.5791,4.5595,1.5389,7.1432,0.0
1741737602.648000,662,-14.9236,-3.0530,0.6289,-9.8091,11.9423,-10.1656,-6.1942,-0.3147,4.2717,-3.0351,-10.1806,7.3902,-6.3462,3.9109,3.6539,1.6495,0.0
1741737602.652000,663,-6.9083,-11.7816,-8.2419,-13.4660,11.8247,-9.5829,-7.5912,2.8888,4.2837,4.3545,-17.6020,7.3554,-6.7013,0.6780,3.4665,-3.8071,0.0
1741737602.656000,664,4.0201,-12.3357,-13.1544,-10.4357,6.0814,0.4439,-7.2834,1.6250,2.7991,7.2291,-18.0201,4.3651,-7.7201,-3.3528,2.1888,-5.6772,0.0
1741737602.660000,665,9.7577,-13.8936,-14.2170,-6.0520,-0.0876,6.4027,-3.8049,-0.7442,0.1106,8.5973,-11.1666,-1.5084,-7.1355,-6.0878,-1.0270,-9.6910,0.0
1741737602.664000,666,9.1703,-10.9957,-10.5333,2.0827,-7.6943,9.7749,-1.1890,-6.2848,-2.5751,9.1675,-3.9111,-6.1768,-6.2543,-5.3901,-4.7210,-7.7081,0.0
1741737602.668000,667,4.9930,-0.4161,-6.6602,6.8368,-7.8523,8.5771,6.3030,-8.9851,-6.7298,6.7584,4.3679,-10.8381,-5.0021,-5.6135,-9.7110,-2.9714,0.0
1741737602.672000,668,-1.5649,6.6503,-4.1559,11.5696,-10.5622,3.0257,6.0153,-14.8274,-8.4119,2.7975,10.1946,-12.9496,1.2460,-5.1287,-7.7303,1.2622,0.0
1741737602.676000,669,-9.7904,11.3572,-0.3761,12.6366,-9.3929,-1.3719,7.5524,-14.2939,-8.2891,-1.3593,11.5496,-11.0550,4.4822,-1.0240,-4.1719,1.4511,0.0
1741737602.680000,670,-10.8731,15.1324,2.9268,11.5794,-7.6136,-10.0911,5.7001,-10.2999,-6.4641,-5.2095,5.5913,-5.0296,7.4733,-0.0135,-0.9176,2.1406,0.0
1741737602.684000,671,-11.5751,10.0943,2.2312,5.5607,0.1087,-17.1236,-0.7386,-3.8377,-2.4537,-6.4596,0.6914,2.8950,3.5254,8.4384,4.5667,-1.4691,0.0
1741737602.688000,672,-8.3827,1.9577,0.1172,-3.0154,6.3593,-19.0563,-2.9727,7.8068,2.8256,-4.2063,-4.3767,7.5224,-0.3359,11.7107,8.0840,-3.3778,0.0
1741737602.692000,673,-4.0436,-1.1795,-0.3755,-9.3639,9.9486,-16.2590,-5.7799,12.1304,5.8477,-1.3002,-9.9736,12.4573,-3.3193,8.1639,6.5911,-5.3507,0.0
1741737602.696000,674,0.8110,-7.5206,-2.8155,-12.7781,7.7934,-13.0090,-10.5617,15.0566,7.1568,0.3933,-13.0498,11.8482,-10.3468,-0.9431,3.3139,-6.6389,0.0
1741737602.700000,675,3.7391,-8.6171,-7.4018,-8.2354,8.3869,-10.0068,-7.0578,11.8955,3.1924,0.3145,-11.9343,10.1185,-10.8361,-7.8770,-3.2249,-10.2808,0.0
1741737602.704000,676,5.5351,-9.2716,-14.6879,-1.9089,8.3514,-4.5751,-3.3683,5.2308,-1.1270,-2.2874,-8.2354,3.6527,-9.1861,-12.9297,-5.7017,-7.2763,0.0
1741737602.708000,677,5.4795,-5.7607,-18.9489,3.6710,6.8567,-5.8832,1.3062,0.4685,-5.5711,-5.6973,-2.8464,-5.6251,-0.9532,-8.0034,-11.5155,-3.8142,0.0
1741737602.712000,678,6.6346,-2.0475,-22.1167,4.7389,4.3608,0.7550,6.4899,-1.6008,-7.3172,-7.3621,2.0961,-13.7633,8.4028,-5.4194,-15.1547,0.8968,0.0
1741737602.716000,679,6.9493,5.5126,-15.4491,8.0689,1.4780,1.8347,8.0929,-1.6218,-9.1838,-11.8691,3.6029,-16.3930,15.0737,-2.1164,-13.1788,3.6610,0.0
1741737602.720000,680,-0.6137,6.9052,-6.4842,11.2605,-3.4682,-1.0700,8.6679,-2.9089,-6.5477,-16.3436,2.7810,-13.1142,12.6603,4.2379,-8.2403,5.1213,0.0
1741737602.724000,681,-5.7986,6.9738,-1.8679,12.0419,-6.5407,-4.1983,10.0770,-0.3375,-4.9893,-19.2275,-0.1545,-3.8790,9.9621,13.5695,-3.8487,0.8910,0.0
1741737602.728000,682,-14.6216,2.2552,3.2563,8.2110,-3.0379,-6.1864,9.1260,0.9368,1.1500,-16.8127,1.2219,7.4171,2.4111,16.4529,1.6861,-0.9543,0.0
1741737602.732000,683,-18.7611,-0.4278,7.3573,2.6833,2.4034,-6.2230,6.6785,4.8300,3.8442,-11.3345,-4.4604,11.6597,-6.0447,13.9038,4.1118,-6.8358,0.0
1741737602.736000,684,-17.3247,-2.4912,0.3121,-4.5642,6.3280,-7.6941,4.1359,2.8727,5.0641,-5.1071,-7.5282,10.6886,-8.2498,4.7738,4.6971,-7.5794,0.0
1741737602.740000,685,-10.6634,-5.3499,-7.4773,-8.2103,7.1089,-7.2278,0.6251,3.0754,6.4066,-2.8782,-10.6395,6.0952,-7.7554,-2.3208,-1.6416,-8.9357,0.0
1741737602.744000,686,-5.3411,-11.0178,-14.5452,-10.3239,3.5416,-7.7422,-0.9135,3.3473,2.1203,-0.5007,-10.7370,3.0825,-6.3151,-1.3491,-3.8607,-6.9265,0.0
1741737602.748000,687,0.2358,-16.3750,-21.9240,-13.0652,2.6314,-4.8453,-1.8226,1.5522,-1.4780,0.5623,-10.2192,-6.5600,-2.6125,-2.4741,-10.2754,-5.7646,0.0
1741737602.752000,688,8.4330,-17.9436,-23.1798,-12.6704,-4.1027,-3.0164,-1.0012,0.9647,-5.8089,2.6994,-8.6388,-14.4118,-0.6407,-5.0260,-9.5036,-0.7297,0.0
1741737602.756000,689,10.6882,-10.8713,-13.8234,-7.9273,-12.1755,0.2828,0.8604,0.4837,-5.6053,2.1772,-8.5267,-18.0760,3.8767,-4.3528,-6.7035,3.6516,0.0
1741737602.760000,690,8.4211,-5.5644,-3.1558,-0.2936,-20.2634,0.7988,2.2023,-8.7196,-1.4569,-0.6620,-7.9189,-14.8427,3.5527,-1.2148,-5.2773,3.7183,0.0
1741737602.764000,691,-3.5594,3.4375,3.7794,9.1528,-22.0850,-0.0727,5.6347,-9.5273,2.6201,-3.5716,-1.6762,-7.3280,4.0087,1.8252,0.8011,6.4087,0.0
1741737602.768000,692,-14.0489,4.7953,7.2509,7.1123,-15.3876,-7.5826,5.6179,-10.4543,3.1403,-7.0942,1.3180,-0.8405,4.6402,1.7160,1.0105,1.7790,0.0
1741737602.772000,693,-16.7272,2.8735,7.2150,1.9485,-10.4908,-10.9576,1.3211,-7.3429,3.7247,-6.4617,2.4295,-0.4605,6.1343,2.5984,4.4390,4.9276,0.0
1741737602.776000,694,-17.2834,3.0179,6.1789,-8.0374,-1.0714,-10.5912,-3.6226,1.2896,6.6652,-7.7990,-4.5483,-1.9092,3.8141,-2.0814,0.4002,2.3803,0.0
1741737602.780000,695,-10.0419,-1.8621,-1.2062,-12.7872,3.2297,-15.1324,-12.2850,6.7689,6.7870,-7.8415,-10.3622,-3.2158,3.3848,-6.7264,-5.5973,0.9333,0.0
1741737602.784000,696,-5.6522,-11.5477,-9.3890,-16.9132,2.4585,-15.8609,-16.5605,6.5181,5.3677,-6.4076,-18.1881,-1.9938,-1.1946,-8.2950,-9.7610,-0.8829,0.0
1741737602.788000,697,-1.2978,-22.3331,-17.3425,-17.1478,1.5691,-13.4555,-15.1367,8.8345,1.9953,-4.9396,-18.1559,-5.7228,-4.0754,-9.1746,-10.7250,-2.0042,0.0
1741737602.792000,698,5.3197,-25.7185,-20.8224,-14.0868,-4.1725,-9.1034,-10.6533,6.0011,-1.3509,-4.6994,-18.1930,-6.3887,0.5325,-10.8017,-12.9109,-4.0883,0.0
1741737602.796000,699,5.6791,-20.5728,-16.7765,-7.6205,-6.9845,-1.4630,-5.6039,0.3230,-3.9622,-2.1433,-13.5785,-12.5925,2.0802,-14.2024,-15.8965,-3.1298,0.0
1741737602.800000,700,3.8115,-10.2771,-10.3729,3.8394,-15.7368,4.5319,-1.8987,-6.0542,-4.3061,-4.3386,-9.5654,-18.1698,2.5685,-16.0255,-16.9939,-2.1649,0.0
1741737602.804000,701,-4.4282,-6.0221,-4.0947,10.5263,-18.3815,2.0260,4.5461,-14.5809,-4.5537,-13.0247,-1.4780,-17.4147,4.4507,-13.9206,-19.3192,-2.6647,0.0
1741737602.808000,702,-13.8088,-2.9902,-0.9503,13.6393,-15.5894,-0.5974,6.8903,-17.3593,-8.3573,-15.7309,3.0813,-14.6883,7.4959,-10.5922,-18.4229,-2.1431,0.0
1741737602.812000,703,-22.3771,-0.9184,-1.3811,9.0185,-6.1776,-5.9433,7.4272,-13.2479,-8.5414,-17.0022,2.9439,-14.3093,8.5975,-4.3213,-16.0889,-2.1614,0.0
1741737602.816000,704,-22.9130,-5.0465,-0.0119,-0.0611,-4.4152,-10.4770,-0.0487,-8.5221,-5.7160,-15.7495,-2.0572,-12.6775,8.0626,-3.4049,-9.1006,-1.6429,0.0
1741737602.820000,705,-19.6495,-9.5497,-3.0877,-8.3736,-2.1833,-10.7639,-6.1916,-4.4298,0.2894,-9.9538,-8.0886,-9.0125,2.4635,-1.5557,-6.0418,-4.6112,0.0
1741737602.824000,706,-13.8489,-16.8772,-0.8084,-14.5400,-4.1810,-8.5192,-8.9184,-2.2107,2.0314,-5.9225,-12.8926,-2.1090,-4.7495,-0.7235,-4.1329,-8.4775,0.0
1741737602.828000,707,-9.2349,-22.9072,-6.6249,-15.1293,-4.6729,-6.8881,-9.4349,-2.5264,4.9336,-1.7580,-14.7024,2.0656,-7.7311,-0.5025,-3.6603,-9.3113,0.0
1741737602.832000,708,-5.2761,-23.7850,-9.0902,-13.9770,-6.5204,-4.7957,-8.1389,-3.3030,2.7198,3.7528,-8.2293,2.7060,-12.5933,-5.8508,-5.8038,-12.7401,0.0
1741737602.836000,709,-0.3838,-23.4869,-8.8782,-10.6993,-6.5124,-2.2522,-6.1375,-6.1487,4.1833,6.1853,-0.1505,-0.7444,-11.5807,-10.6010,-5.2952,-10.1009,0.0
1741737602.840000,710,1.6251,-14.1546,-7.2486,-6.4256,-9.5769,0.2658,-4.6504,-12.4756,4.2872,3.4520,-0.1338,-9.4772,-10.0174,-14.6012,-8.6686,-3.8539,0.0
1741737602.844000,711,-0.7909,-7.2821,-7.9069,-2.2390,-13.0831,-3.5844,-3.7374,-16.3978,2.9936,0.2763,0.6047,-13.1328,-11.7191,-14.8907,-13.5720,-2.9133,0.0
1741737602.848000,712,-4.3367,-3.9819,-10.1090,-2.2452,-15.7422,-6.4393,-3.8175,-19.5612,-1.2845,-3.0883,4.1871,-11.4938,-5.7381,-10.3042,-12.4452,0.1124,0.0
1741737602.852000,713,-8.3749,0.1272,-9.0474,-2.7097,-13.6036,-9.9021,-0.8318,-14.2222,0.2253,-5.6165,3.4616,-10.7748,-1.5311,-3.7336,-7.9099,3.2532,0.0
1741737602.856000,714,-8.9659,0.3558,-1.7349,-3.8091,-13.6639,-6.4848,-0.9668,-8.1335,2.1540,-5.4404,2.7869,-9.5839,0.8276,-0.7624,-1.3478,4.0887,0.0
1741737602.860000,715,-8.7932,-1.2257,3.0738,-9.9865,-10.4755,-5.4431,-4.5790,-1.9643,4.0935,-4.8497,0.8056,-5.4839,-1.2876,1.2028,0.4196,2.4997,0.0
1741737602.864000,716,-9.1655,-2.0459,4.9150,-10.9889,-8.0814,-5.0314,-8.6481,-0.0330,8.9500,-4.8470,-3.1523,0.2135,-10.0188,-1.3972,-0.5277,-0.2978,0.0
1741737602.868000,717,-11.4430,-6.6510,5.1062,-8.4553,-4.7649,-7.0678,-9.5856,-0.8215,6.7675,-1.4938,-1.6287,6.0509,-14.2975,-5.8770,-2.3374,-6.4260,0.0
1741737602.872000,718,-13.2688,-7.8339,-2.4021,-10.0092,0.8647,-9.4710,-8.2541,0.3550,2.4988,-1.8701,0.4195,4.2553,-13.3609,-8.5721,-1.5805,-7.0942,0.0
1741737602.876000,719,-9.3835,-11.3548,-10.2207,-13.2813,4.8240,-8.5899,-9.6141,-2.7327,-2.8323,1.1600,0.9493,-0.4984,-11.4551,-9.3846,-6.1835,-8.7473,0.0
1741737602.880000,720,-3.4596,-11.6961,-11.8691,-12.0214,4.4086,-7.4639,-11.2653,-2.9587,-7.2316,0.6647,-0.6510,-7.9679,-8.2489,-9.5802,-10.2260,-10.0652,0.0
1741737602.884000,721,0.2342,-11.7103,-13.1935,-13.0732,0.4471,-6.7993,-9.4324,-5.0705,-9.3171,-0.3416,-3.5981,-15.6658,-4.4188,-9.3154,-12.5939,-6.0918,0.0
1741737602.888000,722,1.7682,-8.7212,-15.5637,-8.8492,-6.5761,-4.6249,-5.3642,-10.6033,-10.9456,-4.1412,-6.8103,-13.4579,-1.8147,-4.4838,-9.2073,-7.9252,0.0
1741737602.892000,723,1.2224,-9.1133,-11.9752,-2.6257,-11.5952,-2.3309,-2.4683,-13.0628,-14.1885,-4.3382,-6.5076,-9.9328,-4.0783,-0.9078,-7.4510,-6.6878,0.0
1741737602.896000,724,-1.7482,-6.3694,-7.4296,0.0133,-13.4433,1.8135,0.9544,-13.2460,-11.9739,-2.3897,-0.8303,-5.3065,-3.6547,0.2413,-2.4764,-10.5458,0.0
1741737602.900000,725,-2.4553,0.1685,1.6405,3.3515,-12.4892,5.6432,2.7438,-14.2716,-9.6291,-1.5980,6.9007,-2.9424,-3.6114,3.4627,3.6664,-12.2377,0.0
1741737602.904000,726,-4.8411,5.2262,7.9593,1.2729,-8.2076,6.2866,1.3953,-13.7175,-6.7823,-1.8129,9.6837,2.2871,-6.7083,1.5960,3.7298,-14.1438,0.0
1741737602.908000,727,-10.1042,5.0648,7.0917,-3.0672,-2.3491,4.8290,-4.1117,-11.2905,-7.1235,-1.4894,13.1672,5.1838,-8.3475,2.8032,0.0555,-14.8961,0.0
1741737602.912000,728,-8.3605,2.1767,3.4058,-8.4480,1.9232,-1.5711,-3.3420,-9.5990,-5.7032,-0.3888,13.9368,7.2719,-10.0943,2.6940,6.2099,-13.4168,0.0
1741737602.916000,729,-0.8086,-2.2914,-1.8059,-14.6504,0.9706,-4.6086,-8.5867,-4.0342,-6.7537,2.9089,12.4054,6.6983,-7.3820,1.7353,7.6256,-9.6511,0.0
1741737602.920000,730,6.5578,-7.6845,-3.3901,-17.8663,2.3714,-4.4303,-14.2420,-1.2888,-7.7293,4.9324,8.0585,4.0950,-6.9415,0.4653,5.3354,-10.7370,0.0
1741737602.924000,731,15.5059,-9.4320,-3.9649,-18.7889,-2.3195,-2.9255,-13.5167,-1.5799,-6.0950,8.7278,2.4786,5.7467,-8.8803,0.1086,1.3432,-8.3570,0.0
1741737602.928000,732,16.7420,-8.0794,-1.6374,-13.3429,-6.1060,-0.7844,-9.7285,0.6387,-2.4080,8.3349,2.9834,8.2453,-14.0155,0.3389,4.3834,-7.2353,0.0
1741737602.932000,733,14.4718,-1.8115,0.0692,-8.0649,-4.4016,1.9433,-5.2931,-4.7340,-2.5709,7.0902,5.7984,10.3909,-12.0896,-0.0980,2.2642,-6.5175,0.0
1741737602.936000,734,12.7044,5.9997,4.5551,-1.5334,-6.2131,4.8351,-0.7172,-5.5793,-2.8299,5.9971,9.0548,8.7200,-10.3150,-1.2186,4.9587,-7.5786,0.0
1741737602.940000,735,7.8129,9.4580,12.3573,0.0242,-3.0507,7.3333,-1.6531,-5.3097,-2.1225,0.6849,14.7202,4.0012,-8.3096,-1.3195,1.0934,-4.3398,0.0
1741737602.944000,736,3.1500,12.2716,13.4835,-3.1582,-1.4742,6.6963,-2.7874,-5.5929,-3.8995,-3.4380,15.4782,0.7657,-4.3401,-1.0728,-1.4300,-1.9048,0.0
1741737602.948000,737,-0.8639,11.3389,13.4172,-5.4988,2.9569,2.2316,-7.4543,-3.2274,-6.2084,-6.6468,11.8816,2.1266,-3.7819,-0.8126,-3.5366,3.3550,0.0
1741737602.952000,738,-1.2168,5.6404,7.7128,-10.3571,6.5229,-2.0343,-8.9129,2.2823,-8.2624,-6.7404,11.1210,4.4562,0.8720,3.4621,-1.8504,3.3591,0.0
1741737602.956000,739,3.5304,-2.1691,7.6879,-13.1054,9.8558,0.5706,-9.2277,5.2505,-8.6790,-4.4559,9.6315,5.2454,1.6661,4.2487,3.0159,2.5533,0.0
1741737602.960000,740,6.4704,-4.1464,6.6095,-15.9595,11.2504,3.8252,-4.7053,7.0873,-4.5483,-0.1775,7.1264,7.4671,0.4127,9.9218,6.1317,-0.7820,0.0
1741737602.964000,741,11.9361,-5.2471,8.1164,-14.9096,10.5380,7.0908,-6.5184,6.3410,-4.7169,3.3811,3.8753,11.6605,-2.3885,10.8634,5.3530,-5.1821,0.0
1741737602.968000,742,10.3871,-4.5510,7.8604,-10.3667,9.1315,11.0200,-3.3388,1.4680,-4.6583,4.2739,3.8661,11.3755,-7.0673,11.3468,4.7458,-8.7240,0.0
1741737602.972000,743,6.7112,-2.7701,8.5924,-7.4287,6.0645,12.2106,-1.0019,-2.4169,-7.4810,3.7429,7.7179,11.0216,-7.1741,8.1795,4.1742,-9.8332,0.0
1741737602.976000,744,7.1213,1.6773,7.3657,-5.4844,3.6244,12.2715,2.0899,-10.6085,-8.8746,4.9791,6.6745,9.3362,-5.1523,5.7589,2.7928,-6.9330,0.0
1741737602.980000,745,5.2486,3.8455,5.2119,-2.0639,2.2071,11.3277,4.7566,-10.9785,-9.8117,1.7805,9.0870,4.5376,-3.5786,1.0511,1.6181,-4.9989,0.0
1741737602.984000,746,5.6236,5.7231,2.0183,-0.8015,1.2432,12.8540,4.4243,-12.2490,-10.5732,4.2353,10.9799,0.3782,-3.0263,5.4648,3.7147,-3.5757,0.0
1741737602.988000,747,5.4564,5.2206,3.6331,-4.4003,0.9708,14.2026,2.1782,-11.0341,-8.8535,5.0289,11.2476,3.2257,-1.3537,10.0761,1.8771,-4.0606,0.0
1741737602.992000,748,6.2439,9.1680,5.7155,-7.1550,-3.3833,15.7923,1.1934,-6.6386,-6.2523,7.4439,12.6773,2.7106,-0.2171,13.3364,9.5707,-2.7384,0.0
1741737602.996000,749,8.7964,6.5711,7.8306,-9.2536,-3.2775,13.1203,-1.3401,-4.1156,-4.2873,12.2892,14.9786,7.7846,0.5094,13.6199,12.1176,-1.0009,0.0
1741737603.000000,750,7.7289,5.5280,13.5759,-9.4647,-5.3493,9.2144,-1.9273,1.1639,0.0040,11.6741,14.5032,11.4281,0.8130,14.7089,13.8440,-0.1426,0.0
1741737603.004000,751,5.7675,5.2104,20.5970,-9.8216,-4.5668,7.4730,-2.1522,0.7327,0.8546,13.7475,14.8369,16.3831,-4.6460,12.7170,14.0536,-1.1348,0.0
1741737603.008000,752,5.9679,4.4968,16.4029,-5.7621,0.9554,2.1376,-6.7605,0.3759,0.9443,15.0705,12.3587,17.1281,-4.0752,7.7164,10.4618,-0.2494,0.0
1741737603.012000,753,6.0287,5.5474,13.4140,-7.4724,3.0942,-2.7509,-8.3042,-0.4036,2.3962,11.5209,8.8839,15.0085,-4.6927,4.0452,7.6836,0.3116,0.0
1741737603.016000,754,6.5788,6.1869,6.8836,-8.6347,6.8743,-4.3340,-9.2336,1.9088,2.3746,12.3424,3.0743,9.8556,-1.5783,-3.2817,2.8322,3.7663,0.0
1741737603.020000,755,12.6392,4.2605,2.6321,-9.8748,7.1728,-1.5405,-9.1595,4.8775,2.1370,8.0927,-0.6893,5.0980,0.9367,-0.8705,2.3164,4.0885,0.0
1741737603.024000,756,17.2805,4.2006,0.8995,-7.5233,6.4883,2.2781,-11.8578,8.0535,-1.2739,5.0630,-4.2332,-0.2455,5.1098,1.0190,-0.4655,3.1283,0.0
1741737603.028000,757,19.7592,0.7840,5.4243,-6.5768,5.0118,5.0649,-10.5501,6.8677,-3.0508,1.2622,-1.6759,0.2057,5.1652,4.5406,-3.6911,3.2821,0.0
1741737603.032000,758,15.1325,1.3071,7.7554,-3.0917,2.2159,10.8242,-7.2472,9.2871,-4.2614,-1.4513,-0.1361,1.1046,7.0525,2.2782,-1.5968,5.8327,0.0
1741737603.036000,759,10.9616,5.0641,11.3214,4.9297,1.6613,11.9866,-1.8814,7.0315,-5.4636,-1.0852,5.0236,4.0426,7.5612,1.1234,-3.3476,6.8304,0.0
1741737603.040000,760,4.2357,7.2564,13.4944,9.7781,2.0785,11.3371,3.4316,3.5072,-4.5058,-4.1213,10.5385,4.2623,8.2205,1.4756,-0.6419,3.3938,0.0
1741737603.044000,761,0.2082,11.3214,9.4873,12.6207,9.6733,10.8784,4.3716,1.9465,-5.7280,-4.8886,13.8939,3.9442,8.9244,3.5831,-3.0644,3.1533,0.0
1741737603.048000,762,0.3976,9.6422,6.2806,9.1624,15.4326,5.2516,5.5889,1.0071,-7.7873,-7.1914,13.2233,5.5597,11.3897,8.0871,-2.1016,1.6271,0.0
1741737603.052000,763,-0.1624,6.7440,3.4414,0.3119,19.4786,2.4207,3.2763,5.5451,-5.1617,-6.8822,12.4159,3.5798,8.0898,13.1005,-2.4401,1.4643,0.0
1741737603.056000,764,3.6826,1.2246,1.9089,-2.1262,18.8770,3.1065,5.2684,6.0741,-3.6304,-6.8112,3.8637,1.8844,5.6366,10.8332,-0.6800,-0.3222,0.0
1741737603.060000,765,6.0460,-5.4719,0.9143,-2.3589,13.2517,3.0294,0.3523,6.7090,-2.3438,-5.1502,-4.1875,6.2671,3.3092,10.5686,2.6680,-0.4419,0.0
1741737603.064000,766,6.3200,-7.0272,1.5190,1.5554,7.6398,5.4554,6.1512,1.8150,-3.0560,-2.5294,-5.8779,9.7261,-3.9293,10.9086,7.5787,-2.0892,0.0
1741737603.068000,767,7.3146,-7.1694,-0.4433,6.3948,3.5619,9.2982,11.3304,0.6691,-0.9668,5.9052,-3.8977,12.3620,-6.7940,8.6827,5.1748,-3.3421,0.0
1741737603.072000,768,4.8910,0.9734,1.1009,9.2451,3.4699,15.1576,13.3449,-3.3271,0.2449,7.1845,3.4377,9.0100,-6.6152,3.8349,5.7440,-2.3809,0.0
1741737603.076000,769,1.3584,8.6560,4.0555,9.6583,4.7493,14.5827,13.7907,-2.7999,3.2331,10.8395,11.0709,3.9937,-0.6930,2.3644,3.2711,1.8124,0.0
1741737603.080000,770,3.0125,12.8496,4.5963,7.8367,2.8065,13.9129,13.1746,-6.4146,4.7065,10.1351,15.3465,-1.5922,4.3013,3.8162,2.6091,6.0564,0.0
1741737603.084000,771,-1.2204,13.1687,4.3771,8.3693,1.7383,7.9105,9.6087,-3.5487,1.7367,5.2770,17.8205,-2.7957,6.9943,7.9620,4.0345,9.0245,0.0
1741737603.088000,772,-1.8642,9.1327,7.4992,4.9656,3.1430,0.8502,5.2623,-1.0401,3.6142,3.9709,14.9470,1.7157,9.7130,13.3967,7.5399,11.7284,0.0
1741737603.092000,773,-0.8029,3.5500,6.4452,0.0560,3.1005,-4.8886,4.9169,4.7492,5.3118,5.2507,9.3900,3.3476,8.3224,17.0120,10.4283,12.2325,0.0
1741737603.096000,774,1.7039,2.0439,8.0212,-3.7867,3.5824,-7.2131,0.1893,7.6831,11.3141,9.6851,1.2204,10.2256,5.5114,12.9581,13.2905,17.3200,0.0
1741737603.100000,775,4.2947,4.7883,8.2041,0.9047,3.3085,-9.6704,0.7647,10.3087,15.1597,11.7626,-4.0623,13.9221,0.4832,8.9108,13.3996,10.3163,0.0
1741737603.104000,776,5.0425,7.9615,5.6314,4.6840,3.6123,-6.6560,-1.1906,6.5256,14.8611,8.6504,-8.1018,16.4463,-0.6105,4.4903,10.1970,7.1814,0.0
1741737603.108000,777,6.9386,9.5367,2.6227,6.1949,10.0551,-4.1676,0.3839,6.5114,12.7487,6.4596,-4.6965,14.2078,-2.0161,1.4789,4.4893,2.8883,0.0
1741737603.112000,778,7.7141,6.7854,-3.4278,5.3671,13.8861,-2.6897,-0.0223,6.4224,7.3652,2.1232,-1.3588,5.2295,2.6453,-1.3921,-3.2911,3.7590,0.0
1741737603.116000,779,7.2472,6.6142,-7.2324,3.3308,10.5934,-0.8433,-1.7694,9.5977,2.4620,-2.8181,0.5203,-3.9796,6.6051,-4.0849,-9.6516,5.5086,0.0
1741737603.120000,780,8.7346,5.6348,-8.1697,6.5366,8.4268,-0.1459,-1.1208,9.2036,-2.8582,-6.5706,-2.1607,-10.5627,12.1140,-7.0334,-12.6093,8.5778,0.0
1741737603.124000,781,6.7881,4.3981,-9.1324,10.6654,2.2175,-0.8991,2.8485,7.5597,-6.0753,-9.6260,-0.3812,-11.8227,15.4646,-2.9724,-13.2694,9.0562,0.0
1741737603.128000,782,3.2861,2.2629,-9.4824,18.0357,-1.9727,-3.2698,6.7038,4.7728,-5.9286,-10.0185,1.4306,-6.6149,18.4885,2.8245,-9.6903,3.1094,0.0
1741737603.132000,783,0.4411,3.8995,-5.9897,15.4689,0.6914,1.6688,10.6180,4.5100,-5.9340,-9.7557,3.8303,-2.3015,17.2131,5.1534,-6.5149,2.5357,0.0
1741737603.136000,784,-1.1501,4.3600,0.0252,13.3244,4.1519,1.2844,11.3908,6.5327,-2.2867,-8.0193,3.6043,-1.3998,15.9623,9.3414,-3.1216,-2.8731,0.0
1741737603.140000,785,-5.0241,5.8113,6.4335,12.6978,4.4590,-0.9591,9.3670,7.6298,4.4107,-5.8907,1.7712,0.8178,13.6890,8.8669,-1.8119,-7.1488,0.0
1741737603.144000,786,-9.2245,3.7492,6.8492,10.2145,6.5937,-2.2368,6.8372,4.6962,7.0449,-4.8863,-0.8561,4.6211,6.6261,7.4491,-1.5167,-8.0649,0.0
1741737603.148000,787,-12.2330,-5.4694,-1.5310,3.2611,6.7930,-8.1173,5.4298,3.1713,4.7961,-6.8652,-5.7658,8.6256,1.9436,3.6046,-4.4230,-8.8602,0.0
1741737603.152000,788,-9.2937,-10.8809,-5.7356,1.1405,7.9735,-8.6472,4.4841,1.1989,2.0916,-2.6856,-7.6560,3.2986,4.5836,-0.6945,-5.1332,-7.8515,0.0
1741737603.156000,789,-1.6884,-12.5802,-10.3118,-1.3219,7.7027,-2.4125,3.9258,2.2075,3.3248,1.3623,-9.2971,-0.8011,4.4252,-3.8365,-3.4031,-2.4859,0.0
1741737603.160000,790,8.7314,-13.3690,-13.2482,-3.2193,2.4802,3.4060,3.2413,0.3942,3.3970,5.8552,-7.2659,-4.3472,7.6854,-3.6748,-3.9693,0.5531,0.0
1741737603.164000,791,14.0708,-8.0418,-11.1392,1.7617,-3.9535,10.7000,4.2843,-0.4532,9.0919,6.6919,-3.2515,-6.0452,8.1485,-3.0364,-4.2239,-0.0080,0.0
1741737603.168000,792,10.4916,-7.6107,-4.3465,7.4936,-9.8401,10.6068,8.8482,-3.2492,10.1808,5.9477,5.7585,-6.3061,7.8879,3.1180,-3.8702,4.4359,0.0
1741737603.172000,793,3.0603,-1.9049,5.7605,6.7232,-10.6057,9.4129,9.8179,-4.8523,10.8795,4.5676,15.6519,-1.9840,9.1730,6.4947,-0.6966,8.5270,0.0
1741737603.176000,794,-3.9963,3.1202,13.9651,7.6162,-10.8450,3.9254,8.5093,-4.4694,10.3657,0.5385,17.8299,-2.1355,7.7882,5.4735,2.5796,10.8938,0.0
1741737603.180000,795,-9.4633,8.3843,16.6534,8.6296,-7.5802,-1.1523,8.1803,-2.1979,15.7176,1.2015,10.3246,2.2152,6.0040,3.6569,4.7469,15.5769,0.0
1741737603.184000,796,-10.4987,9.0157,12.2934,7.3026,-4.3217,-10.0006,3.3847,-1.8984,18.6201,-0.5900,3.5025,5.2648,2.9453,-1.3213,5.3316,14.3007,0.0
1741737603.188000,797,-9.9475,4.1423,2.6097,-1.2067,3.2986,-14.2162,-1.9700,0.3320,15.7863,0.7652,-1.5802,6.8413,2.2615,-2.6585,3.2129,11.2237,0.0
1741737603.192000,798,-5.5943,-1.0611,-4.6666,-5.0653,10.2553,-13.8721,-5.7070,7.3836,14.8534,-2.8963,-8.2967,5.2287,2.9665,-3.4937,1.1211,10.2040,0.0
1741737603.196000,799,5.5466,-6.5645,-7.2460,-9.8833,11.2309,-6.2490,-6.4649,12.2438,11.8343,0.6099,-8.1584,1.7424,2.8445,-2.9376,-0.4494,5.2575,0.0
1741737603.200000,800,11.9904,-8.6697,-4.5406,-7.1210,5.9224,1.1074,-6.2180,11.9489,8.9167,-0.0283,-8.9439,-4.8976,0.5256,-6.7328,-3.9034,3.2932,0.0
1741737603.204000,801,10.2393,-7.4053,-2.4004,0.2948,0.2358,3.8836,-6.2402,5.4542,4.0784,-2.0123,-11.6436,-6.5471,-0.2537,-11.8413,-6.7076,3.5779,0.0
1741737603.208000,802,2.1067,-5.7320,-2.2921,7.9563,-4.4052,5.1505,1.8452,0.8564,-3.9130,-2.4424,-1.3746,-7.2570,1.2186,-12.4877,-10.1150,1.5567,0.0
1741737603.212000,803,-3.4895,-2.8153,-3.0315,16.3193,-5.5919,2.8176,7.9882,-5.5741,-8.3189,-7.9641,5.7062,-7.8684,6.0210,-9.3287,-11.0055,-1.2376,0.0
1741737603.216000,804,-7.2848,3.8242,-3.1150,17.6057,-1.0973,2.1820,13.8225,-10.8980,-12.7603,-8.6850,12.9760,-11.5645,14.2644,-5.9544,-8.9645,2.1665,0.0
