timestamp,package_num,Fp1,Fp2,F3,F4,C3,C4,P3,P4,O1,O2,F7,F8,T3,T4,Pz,Oz,marker
1741737600.000000,0,26.9283,23.4706,23.3860,-0.0827,14.7062,1.3295,1.6661,-1.8298,11.1912,18.6173,28.4320,-0.0186,19.6596,0.7785,18.7800,8.0168,0.0
1741737600.004000,1,26.2485,24.6912,24.0920,0.0738,14.3271,4.5508,2.4012,-0.2484,17.3257,19.4829,18.6101,2.8462,20.8992,3.6681,21.9456,10.8916,0.0
1741737600.008000,2,30.5428,26.9444,22.4260,-1.0519,13.7606,-5.5847,3.4435,0.3718,19.3994,22.7706,18.9506,3.3578,23.5704,6.7161,20.6253,19.0797,0.0
1741737600.012000,3,28.4134,28.1847,18.3364,0.8551,14.3505,-4.3803,4.5697,3.0361,21.8210,23.4774,19.3918,0.2161,21.9801,7.1089,19.9792,20.6983,0.0
1741737600.016000,4,32.3917,30.7225,19.1274,1.7283,13.6781,-3.4289,2.7007,6.9344,21.7207,24.3454,21.7880,1.9773,22.0570,7.7321,15.1297,21.7747,0.0
1741737600.020000,5,35.3792,32.2849,15.9474,3.5454,12.7718,-0.6225,8.9017,6.6176,24.5825,23.9699,19.9227,3.5656,22.6323,10.5915,17.1901,21.7879,0.0
1741737600.024000,6,35.7127,33.4842,15.8244,3.1434,9.7799,-0.7528,9.5173,7.6278,23.6756,23.2238,20.1803,5.9462,24.8035,11.8370,15.2890,14.1013,0.0
1741737600.028000,7,32.5140,30.7064,11.6360,3.4218,6.2548,-1.6729,12.5775,8.6672,25.6685,22.9434,19.5404,7.2111,23.8346,8.4894,13.8537,18.9234,0.0
1741737600.032000,8,29.4591,34.0408,-3.1536,5.3122,7.4485,2.6908,12.3068,9.9067,24.0802,24.7823,21.7150,7.2143,21.1679,11.8224,16.7756,14.3607,0.0
1741737600.036000,9,28.2817,33.9477,-3.3508,6.5921,1.0762,3.4428,14.5307,10.3854,24.6588,23.8932,22.5748,9.6384,19.4443,12.5032,16.2533,17.1730,0.0
1741737600.040000,10,27.9646,32.8007,-3.5235,6.0179,-2.4180,2.9706,16.1266,10.4545,23.1471,21.1347,18.2246,11.5817,16.9296,14.9189,18.1306,16.3882,0.0
1741737600.044000,11,28.2410,31.2243,-4.5721,4.8950,-4.2473,3.8493,16.5466,11.6473,24.5110,20.8638,21.0045,14.3047,16.3726,23.1979,19.2623,16.8442,0.0
1741737600.048000,12,23.1315,31.3154,-8.0161,7.3888,-5.5403,7.6192,20.6008,14.3073,22.8352,22.7794,18.7232,15.9319,14.6949,26.0411,18.3711,19.5453,0.0
1741737600.052000,13,13.0880,28.0772,-8.7439,8.4771,-8.4403,8.0877,18.9061,14.5786,20.9751,18.7868,22.6053,14.2099,11.6422,24.5862,17.6401,17.2803,0.0
1741737600.056000,14,12.3529,27.5275,-11.0416,9.4301,-10.8834,8.7135,21.3669,12.5543,20.7687,17.7346,24.2869,15.1530,9.5926,26.8968,18.7706,19.9805,0.0
1741737600.060000,15,10.6515,24.0318,-9.3496,10.0756,-12.1015,8.9971,22.5884,12.3413,10.1376,15.7249,23.7618,13.6385,7.2376,27.0309,17.6838,18.2906,0.0
1741737600.064000,16,11.1143,21.5941,-11.5506,9.0767,-12.0199,11.4634,23.0448,11.6819,10.3430,16.1714,23.8379,10.6562,5.8693,27.7239,17.8778,19.4535,0.0
1741737600.068000,17,8.2983,17.8621,-11.2926,10.0260,-15.9909,11.1199,23.4805,13.7275,9.7219,15.2936,23.9694,21.9288,4.7437,28.2291,20.4795,18.8968,0.0
1741737600.072000,18,8.0368,16.9044,-13.1361,8.4644,-17.8570,9.0712,22.1033,11.2249,9.3975,16.8512,24.4059,23.2961,2.8963,26.6795,21.7769,20.1685,0.0
1741737600.076000,19,5.2130,16.1801,-13.3950,9.8106,-19.0718,9.7939,19.6748,16.1659,7.2674,15.2842,20.6453,24.4710,-0.9558,23.8688,19.3352,19.0900,0.0
1741737600.080000,20,0.9570,11.1043,-15.3843,9.5935,-22.2149,21.8037,18.4341,17.5251,9.1858,14.6930,16.4575,24.4807,-6.3458,24.5515,18.9562,17.2311,0.0
1741737600.084000,21,2.6481,9.1738,-16.7457,9.6841,-19.8639,24.3449,20.3988,20.1913,8.3174,12.4392,14.5153,15.1748,-5.4150,24.2663,18.3981,16.3033,0.0
1741737600.088000,22,-1.6053,7.5792,-18.1019,10.1077,-22.2803,23.5543,20.3110,19.8717,7.5853,13.3679,13.0099,14.1750,-7.9036,24.3013,18.4937,15.7344,0.0
1741737600.092000,23,-2.4281,7.0980,-19.6597,24.8697,-25.6310,25.4715,20.8032,20.4779,9.2013,10.7857,11.2353,16.6140,-12.1432,22.9084,17.2574,16.4291,0.0
1741737600.096000,24,-1.8251,6.9750,-21.1017,25.5981,-23.8913,27.8437,18.3924,22.2164,9.2973,10.9824,10.6019,17.3280,-15.1389,22.2290,15.8590,13.0505,0.0
1741737600.100000,25,-4.5942,1.7853,-24.5265,29.6047,-25.6050,28.5746,17.0606,22.1122,9.1021,13.2012,9.1747,17.6321,-12.9973,23.3953,14.6502,16.6789,0.0
1741737600.104000,26,-2.7024,-0.8667,-21.9552,28.7765,-26.0074,27.7271,14.9800,20.7358,10.4667,7.6554,7.4374,20.8653,-13.2170,21.1458,10.9921,13.9754,0.0
1741737600.108000,27,-2.5252,-1.5010,-23.2548,31.1431,-27.2724,28.1052,14.0249,21.7743,8.1111,10.4400,3.9951,20.9022,-16.7263,22.0242,9.5624,12.8227,0.0
1741737600.112000,28,-5.8203,-3.3093,-24.1427,28.4762,-25.0493,25.7423,11.1743,22.9669,8.6364,7.2430,-0.4994,18.9990,-19.8620,21.4384,8.9310,10.7710,0.0
1741737600.116000,29,-7.4396,-6.7242,-24.4230,30.9605,-22.2028,26.7138,6.8967,24.8118,5.9036,6.7645,-2.5891,19.9973,-16.2958,18.5082,5.4199,9.8789,0.0
1741737600.120000,30,-8.8051,-7.2460,-25.3581,33.0383,-22.7985,25.4297,8.3548,25.4508,7.2006,5.7350,-3.8737,20.4590,-19.5395,17.7563,4.4780,10.0926,0.0
1741737600.124000,31,-9.5202,-6.7674,-25.7980,32.8473,-21.4122,25.8846,5.5992,24.6667,6.3323,2.0681,-9.3379,23.0206,-20.9451,18.3369,3.8555,8.8748,0.0
1741737600.128000,32,-8.9645,-7.9791,-25.5772,29.9470,-21.0819,23.6403,3.9544,23.5987,5.8192,-0.0443,-10.5942,24.0788,-18.6595,17.0195,-0.9484,5.6932,0.0
1741737600.132000,33,-11.9654,-5.1167,-26.9221,28.6605,-23.7096,22.4900,1.5906,26.3257,-0.6106,3.8138,-15.0815,25.1675,-18.9966,16.2905,-2.0649,4.3996,0.0
1741737600.136000,34,-11.6048,-9.6387,-29.1657,26.5701,-20.8901,21.5279,0.3241,24.7216,1.2433,-1.4719,-15.6819,22.9391,-20.4872,14.7946,-6.3370,2.5027,0.0
1741737600.140000,35,-14.4196,-9.5802,-29.8432,26.2673,-21.3700,19.7082,-2.1318,22.6875,-2.0390,-1.1565,-17.3881,25.4170,-21.9388,15.5566,-7.0402,2.7805,0.0
1741737600.144000,36,-16.7063,-9.0208,-28.9168,27.3232,-20.8331,20.4662,-2.2195,20.7518,-2.4055,-5.0468,-20.6749,23.4540,-22.4216,13.2140,-8.9084,1.8051,0.0
1741737600.148000,37,-18.0375,-10.4803,-28.8931,24.4306,-20.0030,20.4432,-4.5303,21.6292,-4.4674,-5.2830,-19.4262,22.7031,-19.6864,12.2356,-9.2210,-2.8062,0.0
1741737600.152000,38,-18.6611,-13.0541,-26.3934,24.7353,-19.0240,19.0683,-5.5472,20.2569,-7.5963,-9.5128,-19.4861,20.2189,-17.8201,9.6883,-11.4621,-5.3172,0.0
1741737600.156000,39,-18.1568,-14.7702,-28.1767,19.1729,-20.1080,17.3485,-5.6279,21.0048,-8.9312,-8.2816,-20.5171,20.1997,-22.8224,10.1339,-11.1738,-6.6458,0.0
1741737600.160000,40,-21.1847,-19.7631,-25.8590,18.9117,-20.2635,18.2404,-7.4582,18.9591,-7.8158,-8.1899,-22.1056,18.6270,-22.5602,8.1916,-13.0782,-9.7652,0.0
1741737600.164000,41,-23.0399,-18.7919,-26.0969,17.3176,-17.8934,17.8619,-9.3813,18.3289,-12.5550,-8.5142,-26.5980,16.7205,-21.0131,8.6303,-17.1207,-12.6228,0.0
1741737600.168000,42,-25.7413,-20.1612,-25.4728,11.9120,-16.8432,15.0306,-8.4408,15.8804,-14.1457,-10.9355,-25.3035,15.1989,-20.8689,3.9841,-15.6916,-12.1070,0.0
1741737600.172000,43,-28.7165,-21.2849,-22.6865,10.3859,-15.5263,11.9743,-10.6213,13.0514,-14.7758,-12.1146,-25.1059,12.3036,-21.8894,1.5994,-17.6520,-15.5172,0.0
1741737600.176000,44,-30.9150,-22.1481,-22.9799,10.0895,-15.3836,12.3892,-8.7068,11.2170,-14.8946,-10.3465,-27.1989,9.0558,-20.4354,-3.0006,-16.1278,-17.2570,0.0
1741737600.180000,45,-32.2105,-23.2610,-20.9659,6.8524,-13.8572,13.1573,-11.6905,10.4472,-15.0547,-14.5879,-24.7209,7.9910,-21.9077,-2.6521,-16.8002,-17.0524,0.0
1741737600.184000,46,-31.8027,-25.3769,-20.5825,4.9091,-16.2419,10.5141,-11.5125,8.5449,-16.1592,-13.9707,-24.9657,7.6302,-20.7556,-4.8121,-17.9476,-15.9422,0.0
1741737600.188000,47,-30.1465,-25.2008,-16.3438,5.2013,-12.5269,9.5706,-9.9825,9.0638,-16.3139,-16.1364,-22.5336,4.2381,-19.8133,-9.1793,-18.3937,-17.7341,0.0
1741737600.192000,48,-30.5877,-27.7483,-17.9154,0.9013,-14.8726,6.4289,-13.1539,6.1507,-17.0786,-18.8809,-25.0093,0.6187,-18.8985,-9.3033,-17.5004,-20.2916,0.0
1741737600.196000,49,-29.9514,-27.1056,-15.7900,1.1294,-16.5007,6.0595,-14.7393,4.1164,-16.5234,-19.1573,-25.8854,-1.2676,-22.2978,-13.6311,-18.8467,-17.4597,0.0
1741737600.200000,50,-28.1122,-26.4428,-11.1871,-1.9543,-12.3553,4.8177,-13.2438,0.6575,-17.8529,-21.9342,-22.9999,-3.8206,-21.2323,-15.7455,-18.9745,-17.5873,0.0
1741737600.204000,51,-26.9194,-28.3206,-9.2054,-0.4159,-9.4721,4.3117,-14.7422,0.3511,-17.4899,-22.7276,-22.4880,-7.0516,-20.1611,-19.6190,-16.7877,-14.6228,0.0
1741737600.208000,52,-25.8477,-31.6726,-6.4393,-4.8232,-8.2333,-0.7466,-18.8781,-1.3447,-19.6692,-21.2912,-21.6361,-13.1727,-19.0332,-21.4267,-20.1071,-14.6231,0.0
1741737600.212000,53,-23.3322,-29.7624,-2.6598,-5.2960,-8.2581,-1.5610,-19.2028,-3.0260,-19.3012,-23.5041,-20.9824,-12.7456,-16.2745,-24.1789,-18.3347,-15.6009,0.0
1741737600.216000,54,-23.2472,-28.2856,-1.9928,-9.0093,-6.5991,-3.0381,-20.5891,-7.7011,-15.8680,-24.5584,-20.3360,-13.5858,-18.7621,-24.4764,-19.1320,-12.5916,0.0
1741737600.220000,55,-20.6440,-29.6700,0.8383,-9.9553,-4.0875,-4.3630,-21.6125,-10.3301,-17.3070,-23.4907,-20.2738,-18.7123,-16.0230,-27.2060,-19.3363,-11.1056,0.0
1741737600.224000,56,-18.5871,-28.9813,2.6344,-11.7047,-3.6941,-6.0075,-23.4266,-13.0539,-14.9454,-24.5304,-21.0355,-16.9072,-16.8615,-28.6507,-19.0202,-12.0714,0.0
1741737600.228000,57,-15.2479,-29.2790,7.2488,-10.0853,-2.4657,-8.9504,-26.6009,-14.1128,-13.6350,-24.3997,-20.2748,-19.1900,-14.7822,-31.0186,-18.4593,-11.0611,0.0
1741737600.232000,58,-12.6840,-27.5155,9.4829,-10.1283,-0.2152,-12.0483,-25.4417,-18.0377,-15.6033,-25.2292,-17.9466,-20.9821,-11.3571,-31.2370,-17.5288,-12.9066,0.0
1741737600.236000,59,-14.0093,-27.6787,8.9290,-12.8299,2.9949,-16.7928,-24.6516,-20.6654,-15.4046,-22.2361,-16.6764,-21.7860,-10.0421,-34.2356,-16.8538,-12.4368,0.0
1741737600.240000,60,-12.7502,-27.6735,11.0196,-11.8129,5.1377,-18.5967,-24.0874,-19.5679,-14.2070,-22.4776,-18.1929,-21.2382,-9.9587,-34.5768,-13.4008,-10.5305,0.0
1741737600.244000,61,-9.6824,-25.9449,10.8416,-16.0604,6.1228,-18.7966,-25.8980,-22.0813,-12.2391,-21.8377,-18.3939,-23.1615,-8.1735,-32.0177,-16.8552,-12.8836,0.0
1741737600.248000,62,-8.3094,-24.8608,13.1391,-16.4151,5.8328,-21.5787,-26.1601,-25.2289,-14.4453,-19.4850,-16.0301,-23.1187,-7.2306,-33.0112,-15.8572,-13.3659,0.0
1741737600.252000,63,-6.2550,-25.3176,14.1859,-18.2640,8.8798,-23.5539,-25.4803,-24.5785,-11.8118,-20.5322,-14.4628,-25.5159,-5.0375,-32.9586,-13.3171,-12.3422,0.0
1741737600.256000,64,-3.6267,-19.2472,14.7052,-17.4477,10.0926,-25.0733,-24.9188,-28.0965,-10.0459,-18.1485,-11.4406,-23.7789,-2.3295,-32.4720,-13.8744,-13.0537,0.0
1741737600.260000,65,-3.6456,-19.2945,13.7660,-17.5953,12.9010,-29.2327,-25.5389,-28.7390,-9.8256,-14.5471,-10.0793,-22.3902,-1.4060,-34.2291,-13.8617,-13.4970,0.0
1741737600.264000,66,0.4290,-15.8797,15.2438,-17.8737,16.6159,-31.3830,-24.7763,-28.9589,-7.7069,-13.6393,-13.3180,-24.9299,2.2224,-30.2906,-14.0262,-12.3080,0.0
1741737600.268000,67,0.1820,-12.7510,15.8201,-20.0498,15.2788,-30.4049,-24.5211,-32.6850,-6.2296,-12.1479,-12.5400,-24.6943,2.8531,-31.0484,-13.7214,-12.6113,0.0
1741737600.272000,68,1.5090,-8.9472,15.7909,-21.0209,18.3918,-34.3589,-24.1113,-32.7428,-3.8109,-10.9059,-10.3191,-24.4898,4.0449,-31.8901,-12.6865,-11.0601,0.0
1741737600.276000,69,2.1513,-4.5996,13.7421,-18.7456,18.9698,-34.2523,-21.3933,-30.8622,-4.8738,-6.7417,-11.1562,-21.5707,4.6789,-27.7611,-12.3941,-12.4953,0.0
1741737600.280000,70,3.6190,-1.6051,13.2136,-21.0088,18.4686,-35.7684,-21.8238,-28.2514,-2.4456,-5.7423,-6.9931,-19.2109,8.6974,-28.0035,-11.3677,-10.1517,0.0
1741737600.284000,71,7.8145,0.4524,16.6344,-20.9046,21.7896,-34.2573,-19.1032,-29.6569,-1.9476,-2.7040,-6.0197,-23.6022,10.5396,-26.7385,-12.5578,-7.9294,0.0
1741737600.288000,72,4.7118,2.4266,15.8220,-21.1484,24.0579,-35.7945,-19.5174,-28.9189,-2.8446,1.1955,-7.3348,-22.0168,13.6595,-22.9787,-12.4722,-8.4281,0.0
1741737600.292000,73,4.2167,3.5885,15.1977,-23.7194,26.2368,-33.4635,-19.3106,-24.5574,-1.9125,3.0717,-4.2951,-22.6245,17.6639,-22.0754,-9.4247,-7.2366,0.0
1741737600.296000,74,3.9875,5.3251,14.2433,-23.3496,25.0370,-34.2265,-15.1320,-24.7767,-0.8417,3.4527,-1.6937,-21.3688,19.5843,-20.2234,-4.9537,-6.6586,0.0
1741737600.300000,75,11.2718,9.6753,17.2274,-26.6134,27.4262,-30.5882,-14.6134,-22.5324,1.8741,5.3385,2.6074,-19.2066,19.5748,-15.5608,-5.6028,-6.0047,0.0
1741737600.304000,76,9.8402,11.4948,18.0638,-25.2457,27.4110,-35.3481,-13.1979,-21.0310,-2.2254,9.3337,5.0698,-18.5455,23.2531,-13.1325,-2.4650,-5.7132,0.0
1741737600.308000,77,9.7326,15.8673,15.3791,-24.4775,27.7128,-32.1448,-10.1846,-20.8542,0.5944,7.3525,5.8117,-18.2726,25.8266,-11.8151,-3.2643,-3.9745,0.0
1741737600.312000,78,9.5742,19.4911,14.7491,-22.8422,27.1951,-30.9685,-7.1282,-18.0107,4.0383,9.7986,7.6202,-18.4176,28.4795,-9.3601,-0.4056,-1.4379,0.0
1741737600.316000,79,11.4075,22.2056,13.0298,-23.5245,27.9001,-30.3433,-5.4629,-18.6402,5.1872,12.7740,7.7949,-18.2721,27.2244,-6.9476,0.7478,1.3018,0.0
1741737600.320000,80,11.2086,22.4205,12.7292,-25.7199,24.7482,-26.8643,-3.3851,-15.8951,3.1316,14.7306,11.8804,-18.4511,29.2585,-5.3493,1.0686,2.7451,0.0
1741737600.324000,81,12.1897,25.4655,11.3152,-23.9361,23.0754,-24.9501,-3.3244,-11.5200,5.3757,16.6175,14.8438,-19.3430,29.6648,-4.2569,3.2219,4.8768,0.0
1741737600.328000,82,13.0629,25.5978,11.4257,-24.9925,21.6468,-22.4131,-0.3409,-11.6730,6.2532,18.7567,16.8607,-19.4287,30.6359,-1.7743,6.6229,6.1635,0.0
1741737600.332000,83,14.5959,28.7979,11.9328,-24.1178,20.4391,-22.3723,3.3272,-11.4902,7.0016,17.0707,19.6252,-17.9257,30.8544,1.9217,6.5804,6.4048,0.0
1741737600.336000,84,13.2928,31.0810,10.5296,-19.7420,19.5230,-17.1663,6.6422,-9.8641,8.0051,17.1140,22.0054,-17.2146,29.3104,6.6213,9.0380,8.6177,0.0
1741737600.340000,85,12.6870,30.7452,9.8744,-21.5461,16.5519,-15.4691,8.1665,-7.1581,7.7279,18.3959,26.8242,-14.6469,30.2675,6.2218,9.2706,7.9749,0.0
1741737600.344000,86,14.0526,30.0079,10.0828,-18.6752,14.4440,-14.4471,11.9253,-5.8950,8.4014,19.3324,26.4498,-12.3074,26.9909,8.4492,10.7325,7.2083,0.0
1741737600.348000,87,15.0626,31.2536,12.2475,-20.3936,12.6131,-12.2981,11.9653,-1.5527,7.3925,16.6433,26.5070,-12.0692,29.2360,8.3472,14.0715,12.4103,0.0
1741737600.352000,88,15.9837,27.1486,12.7658,-20.0107,10.5156,-10.2541,13.7379,-5.6027,11.0087,19.6042,29.4168,-11.0073,29.1730,10.8068,15.1383,11.3132,0.0
1741737600.356000,89,16.5402,29.4267,11.5984,-19.3072,10.5135,-8.1523,16.5157,-0.9472,10.7708,19.0183,30.5004,-11.5760,26.1561,9.9855,14.8979,14.8548,0.0
1741737600.360000,90,14.3807,27.9631,14.6621,-19.0761,10.0794,-4.8227,18.0977,0.4409,10.8904,16.6360,31.6300,-10.7312,22.5699,12.2682,19.4382,13.8955,0.0
1741737600.364000,91,17.8717,27.2111,12.8898,-19.3118,8.2523,-4.6374,18.1568,0.7028,9.9360,16.7715,29.5416,-11.0084,24.4698,15.1004,20.5649,17.3459,0.0
1741737600.368000,92,18.1896,28.7112,15.5210,-13.3315,7.5866,-2.0632,20.0624,4.9007,11.1945,18.3771,32.2689,-6.7163,22.6139,14.5487,21.6536,20.2392,0.0
1741737600.372000,93,20.0669,29.3326,15.0963,-14.1723,3.2425,0.7697,19.9407,3.8932,10.6678,17.0420,32.8833,-5.3184,21.0211,13.9830,23.8775,18.4547,0.0
1741737600.376000,94,22.7097,28.4007,12.2562,-11.9367,0.6532,1.1723,19.7251,2.9389,15.5624,17.6331,33.5399,-5.6531,18.6979,15.0334,23.6128,21.8460,0.0
1741737600.380000,95,22.0601,25.9113,12.7008,-9.9614,-0.3696,6.4636,22.9443,4.0701,13.4560,15.4968,34.7815,-1.5613,18.2547,17.4868,25.7675,18.1063,0.0
1741737600.384000,96,21.9556,25.3293,11.2484,-7.5957,-0.8964,10.0895,22.6039,7.0326,14.6464,15.4522,32.2418,-0.5027,12.9089,17.9784,26.9269,20.8982,0.0
1741737600.388000,97,22.6952,24.0287,9.6136,-4.4441,-4.3213,11.5674,21.1466,9.5013,17.7476,16.0193,28.4272,3.6175,9.5367,16.0443,23.7739,20.7560,0.0
1741737600.392000,98,21.4023,21.8439,8.2682,-5.6332,-4.9391,10.5366,22.3810,8.8327,15.8242,17.4982,28.6144,4.5303,10.8439,15.7492,24.7805,20.0757,0.0
1741737600.396000,99,24.5958,23.2564,7.9278,-0.3541,-7.6533,14.2127,22.2497,10.3854,17.0593,16.6200,31.1094,8.4927,6.5159,18.3226,27.6081,20.8952,0.0
1741737600.400000,100,23.4622,18.6632,7.9940,0.5983,-8.0891,14.7781,24.5701,14.0416,20.5122,19.9902,27.9473,12.6872,8.1518,15.3099,24.5201,23.3241,0.0
1741737600.404000,101,22.7539,16.1649,5.3374,0.4761,-8.2144,17.8246,21.9033,12.2414,22.9526,18.9149,22.9769,12.7816,5.0337,18.7412,24.8564,20.1212,0.0
1741737600.408000,102,20.2459,14.6260,0.8954,2.1992,-11.4803,15.9186,21.7739,13.1777,22.0147,17.8231,23.2585,16.9311,4.2081,17.0647,20.3704,21.0955,0.0
1741737600.412000,103,17.4956,16.1512,0.5212,3.5191,-11.4327,17.9011,20.7855,12.0923,23.6493,16.9369,22.5287,17.1326,3.1529,17.1453,21.8796,20.8339,0.0
1741737600.416000,104,18.6407,12.3879,1.9153,5.1256,-9.1482,20.5441,20.6585,14.1551,24.5537,15.5082,19.9255,19.4371,-0.8537,17.9028,20.1380,20.2823,0.0
1741737600.420000,105,17.3382,11.4243,-1.6264,8.7526,-13.3070,18.5703,19.1965,14.6201,24.8087,15.9130,16.6368,22.6163,-0.5103,16.7761,19.5429,21.4985,0.0
1741737600.424000,106,15.0381,11.9387,-2.3063,12.3578,-16.2077,18.6888,19.2813,16.6822,23.3591,15.7252,12.5042,25.5440,-3.7455,17.8549,18.6617,19.5846,0.0
1741737600.428000,107,14.0044,13.1222,-2.0330,11.1332,-14.7866,20.6150,18.2740,17.6815,21.9170,13.9050,14.4104,26.5583,-3.5811,19.0445,13.1065,19.6519,0.0
1741737600.432000,108,13.7612,10.6748,-5.9472,13.1237,-15.0191,18.7163,17.7521,18.3680,22.9571,7.0881,13.0503,27.3428,-6.3571,19.1770,15.9131,17.9581,0.0
1741737600.436000,109,13.5816,8.1765,-8.1178,16.9897,-14.9273,18.7497,16.6344,17.1032,21.7095,5.9806,11.3403,29.8574,-8.0827,17.3039,11.3552,17.0226,0.0
1741737600.440000,110,12.6381,5.4543,-9.4025,19.1998,-15.7788,19.6982,15.6072,18.6709,15.3114,6.1374,9.2103,28.7066,-6.5661,18.7069,9.6888,13.9512,0.0
1741737600.444000,111,11.8238,4.1513,-10.5134,18.9265,-15.1875,18.7722,13.6976,19.7046,14.1569,3.6608,7.9337,28.3517,-6.6173,17.2082,7.7881,13.0371,0.0
1741737600.448000,112,9.0413,3.7295,-10.6455,16.8994,-16.9501,17.5256,11.8940,17.7929,12.9187,4.3013,3.3642,28.5423,-7.4524,16.2988,4.2228,12.8821,0.0
1741737600.452000,113,6.6839,1.9522,-12.0502,16.7558,-15.1514,18.8076,6.4969,16.2484,9.9203,0.7560,2.0125,24.4672,-8.9619,14.5907,5.0590,11.0734,0.0
1741737600.456000,114,5.5337,-1.3415,-15.6175,16.7125,-16.3841,18.3300,8.0291,17.3756,6.1856,2.6913,1.8201,26.8549,-10.3576,15.3349,3.5529,8.8347,0.0
1741737600.460000,115,2.0655,-3.4911,-13.6375,14.3644,-16.0416,17.5342,5.7770,15.1415,8.8927,0.1577,-1.8516,30.6385,-8.6052,16.1260,1.9271,6.8448,0.0
1741737600.464000,116,0.4432,-7.9446,-14.7649,15.8098,-17.1196,15.1266,7.3713,15.9398,6.5048,-0.2887,-2.9275,29.4960,-11.9313,15.4231,0.6639,5.7949,0.0
1741737600.468000,117,-1.4742,-7.7851,-15.1575,18.2659,-18.3506,19.0148,6.6630,12.8500,5.6280,-0.3565,-4.5273,29.3953,-14.2046,13.3483,1.1646,2.7927,0.0
1741737600.472000,118,-3.3672,-8.8406,-16.6428,19.2429,-16.9978,19.2549,3.6554,14.1063,2.9848,-3.4615,-4.5589,27.4787,-13.6390,11.5811,2.2472,0.4990,0.0
1741737600.476000,119,-8.0077,-10.6099,-18.2618,15.4941,-18.2049,19.0301,2.1574,14.1216,0.8733,-2.0904,-6.6684,27.3221,-16.6720,10.6011,1.7573,-0.3241,0.0
1741737600.480000,120,-8.5951,-9.0309,-19.2435,19.8497,-21.7232,18.2656,3.3806,15.6808,1.4478,-2.0636,-7.0811,25.9297,-16.2984,9.9406,1.4958,-2.5331,0.0
1741737600.484000,121,-11.9718,-10.0544,-19.3784,23.1443,-20.6165,18.1098,2.3567,15.1723,0.2762,-0.4683,-7.2518,25.9093,-17.2811,10.8480,-1.9885,-7.3107,0.0
1741737600.488000,122,-11.2874,-11.0600,-18.2136,22.6372,-19.3885,18.2492,2.1082,15.1714,-0.5951,-2.7595,-8.0248,25.0565,-18.4995,8.4185,-2.6167,-4.2265,0.0
1741737600.492000,123,-11.6630,-9.5861,-22.0088,23.7032,-19.1090,20.0149,0.9853,15.1105,-0.2200,1.8201,-8.9794,22.5600,-20.8868,8.2025,-6.0894,-5.1348,0.0
1741737600.496000,124,-12.3408,-13.2844,-21.5439,22.6729,-15.0434,18.5616,0.1743,15.1736,-3.2145,-2.3186,-10.1625,21.8939,-16.5481,6.1184,-7.1825,-6.8291,0.0
1741737600.500000,125,-17.1932,-13.7019,-23.8362,23.6949,-17.7855,17.8186,-2.8383,9.7660,-0.4018,-2.7684,-11.8203,18.7917,-18.0664,5.3175,-8.9595,-5.5214,0.0
1741737600.504000,126,-15.7414,-14.3916,-21.3674,24.6012,-14.3738,14.8326,-4.7506,10.8914,-0.3100,-5.5780,-12.5806,16.9435,-17.7428,1.9922,-8.4880,-5.0200,0.0
1741737600.508000,127,-14.9566,-15.9456,-21.0328,23.6086,-15.4578,14.3204,-5.8381,12.1200,-2.1832,-7.0411,-16.6299,15.5322,-18.2090,-1.4294,-11.1104,-6.5751,0.0
1741737600.512000,128,-16.2914,-16.4797,-18.1749,21.3245,-11.5292,10.3935,-6.2085,11.2349,-3.0797,-7.0162,-16.8815,11.4127,-14.0426,-4.6690,-14.5164,-7.5020,0.0
1741737600.516000,129,-18.9784,-16.7617,-16.7880,20.7531,-9.1438,10.2506,-7.9921,11.7999,-2.0181,-9.7447,-18.0378,10.3890,-15.1637,-3.2231,-13.8107,-6.3728,0.0
1741737600.520000,130,-22.1259,-17.3250,-16.2589,20.7710,-8.6964,7.5103,-12.7686,8.9452,-6.3822,-8.5350,-20.6088,11.9213,-14.5350,-6.0073,-15.8367,-6.4093,0.0
1741737600.524000,131,-19.7791,-16.5209,-14.6836,17.7544,-5.9473,7.0583,-11.2304,7.7882,-8.4362,-12.8949,-20.1645,6.8962,-13.8349,-8.6192,-16.0066,-6.9297,0.0
1741737600.528000,132,-20.4126,-16.0688,-13.9296,16.7921,-5.1170,5.9918,-16.6649,7.0262,-11.8018,-13.3477,-20.3690,6.8231,-12.1158,-7.0546,-18.0086,-8.9724,0.0
1741737600.532000,133,-18.3616,-14.5233,-10.9476,16.4096,-5.8517,-0.8459,-13.8983,3.9530,-15.0496,-15.1063,-18.8840,4.0199,-12.4011,-8.4634,-17.6436,-10.1654,0.0
1741737600.536000,134,-17.6710,-15.9673,-12.1514,15.8208,-3.9858,-1.4638,-17.5127,6.1998,-14.3415,-17.1428,-18.7233,1.2910,-11.9051,-6.7609,-17.3361,-9.9472,0.0
1741737600.540000,135,-17.0908,-15.8615,-12.9185,12.6208,-1.6803,2.7270,-18.4769,3.2168,-16.2227,-13.0864,-18.1059,-3.2598,-10.0552,-8.2513,-18.0535,-11.0769,0.0
1741737600.544000,136,-13.8523,-13.0069,-8.7999,10.4758,-0.7971,-1.6737,-15.8861,0.1497,-16.7989,-12.5343,-18.9929,-4.1045,-9.2532,-9.1158,-21.2268,-11.1648,0.0
1741737600.548000,137,-15.0289,-12.8446,-10.4104,10.0912,-2.4538,-1.3390,-18.7496,3.2730,-16.0089,-12.8492,-17.3846,-6.3341,-8.6832,-7.9088,-20.6781,-12.0930,0.0
1741737600.552000,138,-15.4234,-10.1579,-10.2404,8.7152,-1.4608,-0.3348,-18.4826,0.4799,-17.1353,-13.0422,-15.7992,-5.9681,-7.7762,-4.5309,-18.9392,-13.4052,0.0
1741737600.556000,139,-17.4151,-11.6755,-10.0399,7.8320,-1.0266,-2.1153,-19.1660,-2.8665,-15.5260,-10.8352,-17.6901,-7.4370,-5.6421,-7.4687,-16.2232,-16.0574,0.0
1741737600.560000,140,-18.3389,-12.4685,-9.5446,5.8782,-1.4903,1.9125,-18.5252,-2.7844,-16.4000,-8.5549,-13.6939,-9.9465,-4.5077,-7.5801,-17.2085,-16.4494,0.0
1741737600.564000,141,-18.8032,-13.8196,-9.6406,1.7572,-2.5967,-2.2146,-15.2358,-4.7750,-14.0278,-7.3781,-15.5444,-11.2619,-5.2307,-8.2028,-16.0031,-17.3556,0.0
1741737600.568000,142,-18.5907,-13.3734,-10.5855,-0.8035,-0.6293,-2.6025,-14.2073,-5.3316,-13.0285,-4.5390,-15.7397,-9.1787,-4.5446,-11.8762,-15.2100,-18.2785,0.0
1741737600.572000,143,-18.2092,-10.8346,-9.6745,-0.6272,0.2125,-4.3647,-15.6124,-6.8660,-11.4915,-3.0883,-16.2191,-10.5886,-1.4497,-10.6864,-12.6183,-15.2298,0.0
1741737600.576000,144,-15.9919,-9.5795,-8.9482,-0.9812,1.0703,-4.7659,-14.5235,-8.3086,-11.5335,-2.7137,-12.4228,-10.7877,-2.9460,-11.1980,-13.8276,-18.9235,0.0
1741737600.580000,145,-17.0852,-9.6412,-9.5187,-5.7314,-2.1822,-5.8061,-12.5773,-6.9979,-8.9366,-1.1907,-13.2074,-12.6986,-0.7459,-9.6832,-12.2622,-17.8644,0.0
1741737600.584000,146,-14.5754,-8.2879,-6.8043,-3.6166,3.7336,-5.1976,-10.4525,-9.4771,-8.3276,-2.2951,-10.9965,-12.6838,-0.7017,-9.6215,-13.8012,-16.7901,0.0
1741737600.588000,147,-14.4205,-8.2718,-8.0732,-4.3530,2.7612,-6.8068,-11.9333,-7.9967,-9.8184,-1.1029,-11.9441,-12.7653,0.7002,-9.1671,-11.0031,-14.4764,0.0
1741737600.592000,148,-11.6371,-6.2232,-5.7674,-8.0583,4.1575,-6.9873,-9.6525,-5.1865,-8.1997,-0.7573,-8.9603,-12.0215,-0.9347,-10.2318,-9.3583,-13.1689,0.0
1741737600.596000,149,-11.1709,-5.8498,-4.7670,-10.0150,3.2093,-9.7522,-11.7404,-8.1068,-7.8673,-3.6912,-8.1728,-18.0083,1.2304,-9.7259,-10.7964,-10.1345,0.0
1741737600.600000,150,-8.5361,-1.8101,-3.7150,-9.5203,3.2110,-9.8786,-13.1169,-3.0300,-6.4689,-3.3949,-8.0561,-17.5330,1.9065,-11.7038,-8.4426,-7.0654,0.0
1741737600.604000,151,-7.2547,-2.7984,-1.7707,-10.7953,7.3146,-11.6058,-12.4093,-6.2536,-6.8163,-6.4213,-8.6239,-18.9298,3.0773,-9.8373,-8.3142,-5.5478,0.0
1741737600.608000,152,-7.5004,0.6402,-2.0776,-11.2368,8.2287,-11.5648,-14.3119,-5.8920,-7.6240,-7.2176,-6.1995,-18.1914,4.4799,-11.2302,-12.0453,-4.0065,0.0
1741737600.612000,153,-8.4712,3.6094,1.2250,-12.8623,6.6832,-12.4639,-14.9832,-3.7338,-6.7014,-5.9477,-7.6436,-17.8519,3.8032,-11.1944,-10.5264,-2.1792,0.0
1741737600.616000,154,-6.1362,4.7625,0.1718,-13.1244,6.3193,-15.4978,-14.8693,-5.6021,-7.1384,-5.7581,-6.0024,-18.4559,3.5700,-12.8409,-8.2635,-0.1474,0.0
1741737600.620000,155,-3.7012,4.5109,1.9385,-16.1149,7.4915,-13.6462,-13.2004,-4.2519,-6.7194,-4.0714,-4.3010,-18.7853,4.2123,-13.6623,-7.5483,-0.6993,0.0
1741737600.624000,156,-2.3524,2.0529,1.9043,-15.9803,4.4472,-14.2362,-10.8264,-7.5383,-6.7259,-5.9733,-5.9938,-21.8179,4.8687,-15.3798,-5.1302,0.5500,0.0
1741737600.628000,157,-2.9538,4.0588,6.3802,-16.1524,6.5308,-12.5647,-11.2112,-8.6123,-7.6507,-5.9220,-2.4336,-21.4977,7.4721,-13.0775,-7.3253,1.4156,0.0
1741737600.632000,158,-1.7919,3.8715,6.1823,-17.5610,6.7748,-10.9759,-6.0448,-10.5535,-8.6192,-6.4224,0.9652,-21.4507,7.1204,-12.3170,-5.0126,-1.3760,0.0
1741737600.636000,159,-1.1889,4.0272,7.2217,-20.0614,4.5389,-13.8971,-6.6729,-12.6915,-6.1891,-1.6072,3.3588,-19.2710,5.2499,-10.5524,-6.4198,-0.3191,0.0
1741737600.640000,160,1.6988,4.3722,6.5160,-20.6099,5.7391,-14.6872,-5.8193,-14.3701,-4.6277,-2.2763,4.1685,-16.2037,8.8739,-9.1223,-4.3218,-2.4562,0.0
1741737600.644000,161,0.6882,-0.6170,8.7853,-21.3254,3.7976,-12.3815,-5.4554,-12.9703,-6.1527,-2.8314,4.3346,-17.4130,7.2382,-11.5788,-2.2300,-1.3294,0.0
1741737600.648000,162,2.6775,1.7146,11.7704,-20.5471,4.4334,-10.2745,-3.7123,-15.5700,-2.6633,-0.9584,6.6615,-17.8056,6.7354,-8.6975,0.6205,-1.0481,0.0
1741737600.652000,163,3.0419,0.3961,10.5062,-21.5425,5.5849,-11.4720,-4.0127,-18.4497,-3.4908,-0.1519,7.9027,-18.0508,7.1562,-7.4798,2.4453,-1.2228,0.0
1741737600.656000,164,5.7160,-0.0070,9.5572,-20.9257,3.5867,-11.0098,1.7475,-16.7654,-1.2434,-0.6663,8.1445,-18.3276,5.0728,-4.3667,4.7950,-2.4090,0.0
1741737600.660000,165,3.5507,0.5189,7.6487,-18.8087,3.1549,-9.5138,1.1953,-17.2168,1.2011,3.1658,8.9169,-14.0276,2.8115,-5.2117,2.2540,-3.2414,0.0
1741737600.664000,166,5.6079,-0.0741,10.1879,-20.6797,2.6848,-10.4734,3.1880,-15.4478,3.1656,1.7845,8.6275,-14.1456,2.4692,-5.8810,6.8192,-2.2684,0.0
1741737600.668000,167,5.2684,1.4160,9.1399,-15.6465,1.6712,-7.6879,1.7715,-16.3281,3.9860,3.4966,6.2002,-12.3350,3.3793,-4.9255,5.7731,0.7697,0.0
1741737600.672000,168,6.4531,3.7467,8.5998,-14.5246,1.6484,-8.3948,1.3914,-13.3867,4.2757,2.2703,8.9969,-11.8306,4.4742,-4.5699,4.1330,-0.5868,0.0
1741737600.676000,169,7.4388,3.8749,4.9259,-15.6271,1.4138,-7.0888,3.0989,-12.4146,8.3827,4.2413,4.8314,-10.7399,3.5862,-7.2318,4.9444,0.7108,0.0
1741737600.680000,170,7.7501,5.3863,4.6114,-15.7635,0.2832,-9.8044,2.3248,-8.0710,8.8595,4.0001,7.7227,-5.9006,5.6762,-5.3874,2.3511,0.9728,0.0
1741737600.684000,171,11.1615,7.5048,4.2276,-13.2224,1.5873,-6.8471,5.3432,-6.6918,9.2990,1.4566,7.7239,-5.7302,4.8410,-8.6524,3.3229,4.9051,0.0
1741737600.688000,172,7.2863,3.7944,4.1155,-13.1624,1.5567,-6.6136,1.7705,-6.9248,8.1036,2.5129,5.4229,-2.0684,5.1911,-7.7916,1.4823,3.8530,0.0
1741737600.692000,173,7.6515,7.9069,4.7550,-12.5893,2.2683,-9.8406,1.2084,-4.6265,8.9961,2.4020,5.1892,-4.2162,3.8629,-7.7183,4.3648,5.0268,0.0
1741737600.696000,174,7.7895,5.3502,5.5227,-13.6332,3.8802,-7.5122,1.1118,-6.8297,7.6667,1.1482,2.4148,-4.2595,8.0769,-8.6833,2.5816,7.9462,0.0
1741737600.700000,175,5.5423,6.3179,6.9542,-12.7833,3.9902,-7.2550,-0.3133,-5.0400,8.0834,2.7471,6.3359,-2.0574,8.1679,-5.2048,2.0812,9.7134,0.0
1741737600.704000,176,10.8083,7.7845,6.9174,-13.0700,5.4580,-10.0463,1.3632,-5.8779,10.5310,3.7680,7.3105,-2.3973,6.0458,-5.7850,0.8724,10.0072,0.0
1741737600.708000,177,9.9743,5.8929,8.8264,-13.1511,2.5022,-8.2593,0.4240,-4.1857,9.4218,0.7559,9.5523,-3.7469,7.7293,-6.5035,1.6023,9.1454,0.0
1741737600.712000,178,9.5463,6.7886,6.1401,-13.5272,4.6892,-8.2154,-0.3129,-5.2069,7.4730,2.3292,7.9437,-0.3607,7.6968,-3.7641,1.4407,11.0016,0.0
1741737600.716000,179,10.9377,6.7918,5.8182,-10.8388,3.3321,-8.4392,0.7593,-8.0538,7.0351,1.5179,9.6278,-2.1911,5.8642,-2.7056,3.8608,9.5567,0.0
1741737600.720000,180,10.0129,8.8957,5.8914,-10.0276,3.7215,-5.3046,-0.2525,-6.5341,5.8868,-0.3415,7.2485,0.1669,8.7800,0.1111,4.3871,8.3596,0.0
1741737600.724000,181,10.7932,5.9293,4.4584,-11.5724,1.1015,-2.0503,1.5788,-6.2534,4.2417,0.6821,7.8616,-0.6649,5.8053,3.0628,3.5348,8.1547,0.0
1741737600.728000,182,10.1775,4.8328,4.5856,-6.5578,-1.5744,-4.3601,2.2227,-6.6629,2.7812,2.0493,8.0900,1.7595,5.9716,2.3823,4.2793,7.9050,0.0
1741737600.732000,183,11.5704,5.8656,6.1173,-6.8392,-2.7954,-3.2675,2.3393,-5.2687,2.8848,4.2293,9.3507,2.4277,3.9601,4.7899,7.0771,5.6715,0.0
1741737600.736000,184,11.6467,5.2791,2.3218,-4.7053,-1.3583,-2.7341,4.6892,-5.7314,5.0790,1.9965,7.6204,0.8880,2.9672,3.9700,8.7609,5.0356,0.0
1741737600.740000,185,8.1085,0.3462,4.2088,-4.4397,-1.4751,-1.5770,4.7277,-5.1184,6.3878,5.4165,7.5311,0.0852,3.6214,3.0925,6.3095,2.0932,0.0
1741737600.744000,186,7.2248,-0.6231,1.7691,-4.2598,-0.7607,-0.2959,4.6993,-3.9334,8.2263,4.0856,5.6695,2.1313,4.3561,3.8004,6.6742,0.6356,0.0
1741737600.748000,187,7.4865,1.5721,1.4895,-1.9687,-1.0625,-0.8151,4.8367,-0.8907,6.3700,6.8940,3.8383,4.9161,0.2615,1.9694,5.1359,-1.2394,0.0
1741737600.752000,188,5.0198,-0.2604,0.1309,-0.7108,-2.8243,-2.7063,4.8474,-1.4379,5.6122,5.9340,4.6949,6.0077,0.1759,-0.4127,7.8510,-0.9549,0.0
1741737600.756000,189,3.0501,0.4903,1.7455,-1.7917,-1.3983,-2.4572,6.8617,-1.5156,7.2042,6.4348,4.6325,7.2136,-1.7461,2.0124,7.9182,-1.3191,0.0
1741737600.760000,190,-0.3738,1.1783,1.0719,1.9019,-1.6132,-2.2948,7.6893,-3.0663,8.4328,6.6942,4.2937,8.8818,-2.8656,0.5013,4.2293,-1.0433,0.0
1741737600.764000,191,1.3018,1.5700,-1.2667,3.7003,-0.7368,0.6675,4.4443,0.1456,6.7466,4.5797,2.4292,8.0357,-0.8206,1.1633,4.2767,-1.5751,0.0
1741737600.768000,192,1.4321,5.0379,-1.1009,6.6537,-0.7974,1.1695,7.5898,0.3699,8.7435,3.2398,3.2535,9.2659,-0.5910,-1.1669,4.4149,0.1970,0.0
1741737600.772000,193,2.8329,3.9490,-2.3320,7.5258,-0.4990,-0.7979,7.7104,2.5694,7.1428,3.4189,6.0791,7.9055,-1.1034,0.2279,4.6795,1.5073,0.0
1741737600.776000,194,0.1428,7.3797,-2.3588,11.9100,0.8083,1.0805,5.4407,3.0979,6.6631,3.1864,4.1001,7.3050,-1.7927,-1.1318,2.5237,4.3774,0.0
1741737600.780000,195,2.1360,5.4901,-4.5167,13.2928,2.0006,2.2989,4.3024,2.9295,5.1550,2.0671,2.3872,6.6739,-0.4453,-0.3289,1.9787,4.2135,0.0
1741737600.784000,196,2.9921,8.2033,-2.4891,16.2031,0.5401,4.2161,2.8882,4.8949,5.7130,2.0676,3.3962,5.8196,-0.6258,-2.1481,1.7671,5.5369,0.0
1741737600.788000,197,3.4287,10.0037,-2.7841,15.5096,4.5961,3.5784,0.7340,4.9428,4.6562,3.3238,2.1206,5.4928,4.7320,1.7087,0.6528,6.8336,0.0
1741737600.792000,198,5.2334,8.4634,-1.0621,14.5308,5.6645,2.7629,3.4925,3.9382,5.8180,3.7462,1.8732,5.1190,5.2340,-0.2260,0.1501,7.6905,0.0
1741737600.796000,199,3.2293,7.2710,-0.6698,12.5951,7.3017,2.1316,0.6908,4.0837,5.0525,3.2732,3.6462,4.6637,6.4850,4.4295,1.3709,7.6000,0.0
1741737600.800000,200,3.4697,4.6303,0.2945,11.6755,7.8199,0.4356,0.2580,3.9440,5.4699,4.6039,3.1732,3.9981,11.0008,2.5168,0.9762,6.2898,0.0
1741737600.804000,201,1.3332,3.8516,-0.5700,11.9400,9.3328,0.8066,0.1931,5.0387,4.2959,7.6909,-0.0764,1.0726,9.1085,4.2335,-0.4245,4.8305,0.0
1741737600.808000,202,0.9653,2.6327,1.7021,10.1950,10.0053,0.5658,-1.0436,2.5944,3.6252,5.1480,0.0282,3.8848,9.4139,4.4900,2.1679,3.1898,0.0
1741737600.812000,203,1.8378,4.1223,0.6409,9.3074,10.2522,1.7589,-0.0859,3.8929,1.7816,5.3721,1.2937,3.9331,10.1552,5.2027,1.8733,2.8452,0.0
1741737600.816000,204,0.7474,5.7910,-0.3549,7.7926,12.4874,0.1738,0.8612,3.3448,2.5834,7.3971,3.1895,4.9018,9.9868,8.0172,2.2348,3.4250,0.0
1741737600.820000,205,0.6180,4.2314,1.4873,7.3477,7.2227,-0.1745,1.4478,3.1121,2.1695,6.8869,1.9199,4.8653,9.8835,10.3548,3.1699,0.1700,0.0
1741737600.824000,206,-0.5208,6.4930,-1.0711,7.7122,8.4099,0.1674,1.5189,4.0485,1.2679,7.0897,0.6279,4.7006,9.0587,11.9502,3.3847,-1.9698,0.0
1741737600.828000,207,-0.1293,9.4445,-2.0290,8.9885,3.7836,1.6754,3.3188,2.5925,1.9653,5.5423,2.0275,4.5309,10.4249,10.6046,1.5279,-0.9021,0.0
1741737600.832000,208,-0.2701,10.7962,-6.2242,8.0429,3.4626,2.5103,0.5674,4.0872,0.4291,6.3283,2.5200,4.5969,7.0642,12.9235,0.8700,-0.6276,0.0
1741737600.836000,209,0.2934,11.1040,-5.2517,7.8519,2.6615,5.4244,4.0524,7.2019,1.2883,7.8041,5.9377,3.1671,6.5746,13.4002,0.1979,0.6861,0.0
1741737600.840000,210,-1.8179,11.3944,-6.2209,10.4979,3.6139,6.9283,4.6992,7.7809,3.5068,10.3346,4.8964,4.3135,4.5155,13.6296,0.8722,1.0079,0.0
1741737600.844000,211,-0.2208,9.0614,-7.1978,7.5052,1.0808,6.8081,4.7556,9.6928,6.5656,9.3816,7.4631,3.3447,7.9849,11.0727,-0.4256,0.7455,0.0
1741737600.848000,212,-2.4646,10.9825,-5.1708,5.0991,2.2232,8.4016,5.1690,10.1600,3.9104,8.1214,5.8586,3.1552,7.7709,10.2377,0.4949,0.5285,0.0
1741737600.852000,213,-2.9788,9.0885,-4.8769,4.1081,1.7116,7.9650,3.2061,9.3390,5.7448,9.6902,5.3515,0.0823,9.5068,9.4407,-3.2191,1.7341,0.0
1741737600.856000,214,-5.1304,9.9480,-2.6518,3.4293,2.2068,8.4472,6.8375,9.5384,2.5926,8.2690,4.5638,1.7844,10.0110,8.9000,-0.6526,2.2737,0.0
1741737600.860000,215,-6.1826,12.1434,-0.3454,1.6780,3.6315,6.7398,3.9824,9.3771,3.6454,7.0053,7.8979,2.1240,11.8710,6.3722,0.3148,2.8355,0.0
1741737600.864000,216,-5.1645,6.7601,-1.3148,-1.7561,2.3015,7.0572,4.6016,7.7168,3.5667,6.0494,7.1159,3.5187,12.5632,8.2466,4.7287,4.6481,0.0
1741737600.868000,217,-2.2625,7.5689,0.8647,-2.2480,-0.1546,5.7846,6.3717,9.3222,4.7864,6.9104,7.3065,5.7113,10.0781,9.6501,3.5165,5.1810,0.0
1741737600.872000,218,-0.4721,6.5326,-0.2528,-3.5249,-0.7162,4.6162,7.6192,9.0931,5.6192,4.9275,8.6554,2.2742,7.9980,9.0394,3.5677,3.8854,0.0
1741737600.876000,219,-2.3002,7.1220,0.0605,-2.4153,-0.0211,8.1869,7.0734,7.7095,1.6550,4.9396,5.7830,1.1116,7.9292,8.6270,6.0493,5.6395,0.0
1741737600.880000,220,3.2495,7.0546,1.2014,-2.9765,-1.9227,8.7663,9.6921,9.7976,2.2028,5.6732,10.8464,2.2357,7.6661,7.3602,8.6986,11.8560,0.0
1741737600.884000,221,1.9991,4.1240,0.8337,-2.4538,-3.5128,10.7220,7.8445,10.9115,0.7065,2.7304,10.5802,0.0260,3.8116,9.0736,6.0295,9.2271,0.0
1741737600.888000,222,3.5668,6.2855,0.9786,-2.1414,-5.2286,9.7564,7.3522,7.3572,1.5663,1.2995,10.2777,-1.4702,4.3119,7.2908,7.4824,8.9059,0.0
1741737600.892000,223,4.5577,5.1031,-4.0322,-2.2644,-8.6102,9.0475,6.4578,6.2978,1.5348,0.6951,9.3953,-0.7463,3.6576,8.0598,8.6677,7.2255,0.0
1741737600.896000,224,3.2891,2.3646,-2.7260,-3.3104,-8.4054,9.9467,4.2162,7.7938,3.5130,1.9864,7.5384,0.8809,0.7988,5.9554,8.6602,7.6936,0.0
1741737600.900000,225,4.2039,2.0847,-4.0143,0.6520,-12.5788,14.2512,3.3819,7.6441,5.7399,1.5424,9.2350,0.9149,-1.7368,7.4994,7.5003,10.9109,0.0
1741737600.904000,226,5.2486,0.9230,-2.9072,-2.6888,-13.0190,12.0313,4.0770,6.9580,4.7955,1.3395,8.3067,2.4850,-1.1435,4.6997,5.7181,8.9393,0.0
1741737600.908000,227,4.0978,-2.5337,-0.6070,1.2970,-14.4531,12.3848,3.1873,5.2859,5.0573,-0.6540,7.0266,0.8491,-3.7864,0.3661,4.1232,7.7898,0.0
1741737600.912000,228,1.3201,-1.3322,-0.1034,1.5727,-10.0135,10.4348,5.3857,2.4734,7.4377,0.8533,6.4673,2.3426,-4.2968,-1.2802,3.7148,8.1809,0.0
1741737600.916000,229,3.2166,-1.9565,-0.0661,1.0870,-14.1819,8.7569,6.2553,0.8622,6.6627,-1.0425,8.8582,5.7412,-3.1479,0.2637,5.0113,7.6769,0.0
1741737600.920000,230,-0.0135,-4.4669,1.1104,2.8325,-15.0404,7.6495,3.5537,0.3189,8.6605,-2.2471,4.7454,3.5162,-2.6463,-1.3011,2.7709,6.4546,0.0
1741737600.924000,231,3.0573,-4.1729,-0.0426,1.2709,-13.1391,7.6315,5.2532,-4.3862,10.6636,-3.0238,3.7872,7.1959,-6.8286,-1.8883,4.2060,6.8920,0.0
1741737600.928000,232,1.1035,-8.3349,-1.8922,1.2180,-12.2204,5.2436,4.3234,-1.7585,8.6813,-2.0338,3.0991,5.9868,-8.2260,-2.5451,2.5993,8.7713,0.0
1741737600.932000,233,4.5979,-6.6324,-0.4693,5.0393,-11.6325,2.6932,2.2364,-3.6161,3.9540,-0.5573,1.7381,6.9982,-10.0388,-2.5018,1.6127,5.6588,0.0
1741737600.936000,234,5.7344,-9.1362,-1.1796,3.3586,-11.6412,2.5472,1.6968,-5.0033,3.8390,-4.0035,4.8329,3.4756,-8.7320,-3.9033,1.6508,8.5127,0.0
1741737600.940000,235,3.3905,-9.7102,0.1819,4.1007,-10.3389,3.5063,0.9446,-2.5414,2.3329,-3.7804,2.0730,4.6338,-9.6391,-5.2448,-0.3854,6.4218,0.0
1741737600.944000,236,3.9245,-5.9553,-1.3574,1.6399,-10.7786,1.2970,-0.6766,-4.9629,2.0032,-3.3357,0.1391,5.7795,-7.9797,-4.8197,-0.0653,7.0498,0.0
1741737600.948000,237,1.5636,-9.4406,-5.1268,5.1792,-9.2843,0.7730,-0.5282,-1.2231,3.7379,-3.2776,-1.7466,4.6586,-9.9965,-2.8924,2.3534,5.7804,0.0
1741737600.952000,238,5.1063,-6.9269,-6.3163,2.4189,-8.1985,1.6788,-2.5335,-2.6599,6.3567,-1.0269,-2.0915,4.0697,-10.9450,-3.4466,0.5660,7.4929,0.0
1741737600.956000,239,3.1265,-6.3308,-8.7429,5.0700,-8.6146,1.4712,-3.5960,-2.5195,4.6926,0.4334,-2.4300,5.0950,-11.9255,-2.6211,-1.6166,4.0329,0.0
1741737600.960000,240,2.7224,-8.0623,-9.5257,6.6628,-8.1510,1.3566,-4.1176,-2.5712,3.7748,-0.6754,-6.8573,4.4490,-9.6367,-4.5189,-2.4834,0.3406,0.0
1741737600.964000,241,-0.2761,-7.4050,-8.7940,6.2865,-8.0001,3.1312,-3.6036,-2.2840,5.8316,-1.3960,-8.2410,4.1596,-9.2753,-3.4335,-1.9567,0.1581,0.0
1741737600.968000,242,-0.0401,-5.5253,-12.3601,6.6105,-8.6917,-4.1390,-6.1021,-1.7258,4.3246,-1.8026,-12.9164,9.6758,-8.2245,-2.6738,-3.7791,0.6426,0.0
1741737600.972000,243,-3.6573,-4.4796,-14.6184,5.6082,-5.1274,-0.5384,-6.1606,-1.5096,2.2987,1.0577,-14.5163,10.5503,-9.0927,-2.3719,-2.9041,-2.2559,0.0
1741737600.976000,244,-5.3500,-4.7932,-18.3558,6.0438,-10.0251,-0.1282,-6.5484,-0.2341,6.3700,4.6947,-13.5570,12.5695,-8.8872,-3.6577,-4.8343,-1.6172,0.0
1741737600.980000,245,-7.2013,-5.2452,-17.5244,6.8455,-7.2726,-0.6493,-6.7464,-0.5681,4.9741,5.1694,-12.9987,12.3397,-9.3624,-1.4967,-8.3788,-5.1466,0.0
1741737600.984000,246,-6.8182,-4.7330,-17.5667,6.8233,-8.1218,-0.9516,-5.4232,1.1591,6.5018,3.9634,-12.9945,12.6824,-7.2001,0.5164,-8.6007,-3.5341,0.0
1741737600.988000,247,-10.1390,-5.6115,-16.7519,6.0507,-6.5838,-0.8238,-3.8772,0.1654,5.4958,2.2565,-14.0878,10.3949,-5.7673,2.2373,-7.4124,-4.6820,0.0
1741737600.992000,248,-10.6833,-3.3744,-16.5763,2.0057,-4.7011,-2.5314,-2.2325,0.1148,7.3004,1.3895,-13.0260,8.9773,-8.6163,0.9506,-8.9322,-5.2926,0.0
1741737600.996000,249,-9.7203,-4.2375,-17.1134,-1.1822,-3.9386,-4.6447,-2.4362,2.6558,2.5585,0.4359,-11.4516,9.0680,-6.2548,-0.5295,-10.9527,-5.5763,0.0
1741737601.000000,250,-14.3700,-4.2698,-17.7228,1.2032,-5.7298,-4.0996,-4.6527,2.6426,2.2072,1.2429,-11.0572,6.5311,-5.7888,-0.4790,-8.8173,-4.9774,0.0
1741737601.004000,251,-11.5574,-5.2234,-17.9491,1.4211,-3.7493,-2.5505,-5.8816,3.6699,0.5025,-1.3596,-8.4309,0.8364,-3.2519,0.2911,-8.9264,-5.8967,0.0
1741737601.008000,252,-11.5811,-3.6924,-15.3433,1.0725,-2.3724,-3.5987,-5.8189,5.0607,-2.9161,-2.6542,-10.3386,1.0767,-1.6816,3.1442,-11.3123,-7.5198,0.0
1741737601.012000,253,-13.4023,-1.3278,-15.4321,-1.3968,-4.3522,-1.4204,-5.7835,4.6245,-4.9537,-5.1824,-9.6376,-0.2610,-5.1715,3.6774,-8.6450,-6.1980,0.0
1741737601.016000,254,-14.1123,-1.4754,-15.2684,-2.2962,-5.3407,-2.2770,-8.3151,4.0208,-10.3995,-5.5031,-10.6857,-4.9889,-6.1140,2.6463,-8.7332,-4.4950,0.0
1741737601.020000,255,-14.0030,-3.2165,-15.4834,-0.7396,-4.7215,-4.0289,-7.0330,2.6754,-8.8043,-6.8945,-11.6525,-3.3850,-6.0458,0.0530,-8.6781,-2.8811,0.0
1741737601.024000,256,-15.1579,-4.5738,-13.9734,-0.1382,-7.3872,-4.5732,-9.2240,3.4387,-12.1583,-5.2289,-9.0628,-4.2196,-4.2956,1.0917,-7.6007,-5.5642,0.0
1741737601.028000,257,-14.8605,-6.8088,-11.7728,-3.9402,-5.6527,-4.2307,-7.3253,3.0538,-13.0053,-6.6582,-9.9047,-7.5051,-4.0100,-3.0099,-8.7020,-6.6901,0.0
1741737601.032000,258,-15.7771,-8.4595,-11.1964,-3.3334,-4.8609,-4.8825,-9.3564,2.9524,-12.1424,-6.7159,-8.0149,-8.7916,-2.3230,-2.5186,-6.8124,-6.8564,0.0
1741737601.036000,259,-15.5608,-6.2863,-10.8107,-5.2580,-6.3715,-1.7350,-5.5638,1.8206,-13.1541,-7.0169,-8.3090,-9.5892,-3.8438,-5.6713,-5.5376,-6.1448,0.0
1741737601.040000,260,-14.4474,-8.5476,-8.0827,-5.8094,-3.0566,-3.2963,-4.2171,0.8113,-10.5463,-7.0757,-7.7315,-9.4678,-2.1094,-4.4359,-5.4208,-6.5113,0.0
1741737601.044000,261,-15.8050,-11.6707,-5.6559,-6.0276,-4.4570,-1.3922,-5.8338,-1.5402,-11.3466,-3.6157,-6.0023,-8.9950,-4.0611,-6.2274,-3.5353,-4.0990,0.0
1741737601.048000,262,-16.3140,-11.9284,-5.2951,-6.1588,-3.8253,-1.3170,-6.5106,-1.2029,-10.7043,-5.8703,-5.2869,-9.1594,-4.7283,-5.9466,-0.5984,-4.6135,0.0
1741737601.052000,263,-14.5129,-10.2013,-2.7073,-3.7586,-4.0698,-0.6885,-3.7262,-4.6389,-10.0092,-4.9113,-5.7937,-10.8504,-5.4525,-6.2595,1.9094,-4.3462,0.0
1741737601.056000,264,-16.8256,-13.6043,-4.0442,-3.3977,-2.6364,1.3252,-3.8051,-3.4271,-7.7553,-2.5344,-4.0246,-12.2659,-4.0439,-7.2223,-0.0022,-5.4891,0.0
1741737601.060000,265,-17.4191,-9.6977,-5.9671,-3.7889,-5.5011,0.1415,-2.3511,-3.1202,-6.5382,-2.8939,-3.3620,-13.0310,-5.0916,-8.7019,-0.4693,-5.9525,0.0
1741737601.064000,266,-12.8927,-7.2416,-1.2494,0.9490,-3.7774,1.4438,-1.9519,-2.4422,-6.1048,-4.7702,-5.2860,-10.5148,-7.6499,-8.2184,-0.5168,-6.8023,0.0
1741737601.068000,267,-10.6470,-8.7074,-1.1994,2.3704,-2.1591,0.7587,-4.5357,-1.9053,-6.3291,-5.4852,-3.8548,-12.3488,-7.4802,-7.9315,-0.0741,-5.0160,0.0
1741737601.072000,268,-10.0060,-8.1331,-3.1397,3.8750,-2.6721,1.3671,-7.4494,-3.1300,-5.1423,-3.9574,-3.5461,-12.7014,-7.0941,-8.3567,-1.5573,-2.9776,0.0
1741737601.076000,269,-9.0734,-8.3933,1.2958,4.1090,1.5943,1.2777,-6.8262,-5.4095,-3.0743,-2.9886,-5.8133,-12.8648,-5.4295,-9.5986,-3.9634,-0.7113,0.0
1741737601.080000,270,-7.4234,-7.4191,1.5717,4.5600,3.3917,-0.9139,-4.0213,-3.4634,-2.1754,-5.4351,-6.7460,-12.6668,-3.6895,-12.4402,-3.5021,-1.0283,0.0
1741737601.084000,271,-5.8200,-9.9860,3.1137,1.0610,3.8345,-2.6171,-7.1406,-2.7599,-2.5592,-2.5426,-3.7402,-12.3072,1.5367,-11.3698,-5.5148,1.8739,0.0
1741737601.088000,272,-3.4829,-10.2460,5.6996,-3.1759,6.6368,-6.0239,-10.6571,-6.0662,-2.2817,-5.1265,-7.0545,-15.7808,3.5391,-14.5331,-7.7068,0.1911,0.0
1741737601.092000,273,-3.8712,-10.4550,6.7694,-3.0417,8.9695,-7.0183,-8.8748,-5.2582,-3.1432,-4.8386,-6.7156,-14.3596,4.3531,-15.4462,-5.6908,1.7584,0.0
1741737601.096000,274,-0.1887,-7.5543,8.4713,-6.2835,11.3055,-8.7328,-11.7657,-7.6314,-0.5490,-5.9304,-6.3975,-11.6026,3.5644,-14.6467,-3.9364,-0.5501,0.0
1741737601.100000,275,0.1947,-3.2456,11.0155,-3.6115,15.2922,-11.1682,-9.9573,-9.2418,-2.2847,-4.0294,-5.3783,-12.4183,6.7171,-10.6231,-7.4926,-0.3353,0.0
1741737601.104000,276,1.7691,-7.1756,13.1183,-5.0828,15.7069,-11.0427,-12.8582,-7.9248,-1.0472,-4.6478,-5.3688,-11.4174,5.4273,-10.2597,-5.4905,2.2991,0.0
1741737601.108000,277,1.3311,-4.0567,14.3380,-7.4014,17.1055,-13.9599,-11.7552,-7.8193,-3.8545,-1.6622,-6.4646,-11.7140,7.3484,-9.0426,-5.7560,4.4924,0.0
1741737601.112000,278,3.0319,-3.3743,11.9497,-9.5649,15.7831,-14.0502,-11.7661,-8.2316,-5.0926,-4.8133,-2.3072,-11.1011,8.0942,-7.8068,-3.9467,-1.1218,0.0
1741737601.116000,279,5.5144,-1.2467,10.5998,-9.3130,16.1909,-13.7993,-10.6438,-9.7045,-4.1868,-1.0271,-2.3835,-10.5939,8.3153,-4.9654,-2.7000,-1.5619,0.0
1741737601.120000,280,4.5546,2.3884,9.5598,-9.8778,13.1592,-13.8429,-8.3580,-6.4836,-3.3245,-2.1329,0.9836,-11.0735,8.9783,-4.2074,-2.4559,-4.3512,0.0
1741737601.124000,281,5.0062,5.4453,6.6451,-7.5208,13.3932,-12.1359,-8.3391,-9.8962,-3.5915,0.1919,-0.7029,-9.3163,7.3772,-3.2992,-1.3989,-2.6063,0.0
1741737601.128000,282,6.2740,5.0527,9.5457,-9.3403,12.4342,-10.2291,-5.6889,-11.3161,-2.9048,1.4951,1.5212,-9.0421,9.8239,-2.2763,-2.7953,-2.0001,0.0
1741737601.132000,283,5.1259,6.5674,6.6140,-10.0103,12.1130,-8.5921,-7.0575,-7.7091,-2.8917,4.3803,2.2777,-8.7692,10.6596,-2.4396,-2.5974,-3.9795,0.0
1741737601.136000,284,3.7985,7.5919,5.8237,-11.9956,10.3240,-9.2946,-5.0696,-6.5833,0.2577,7.8078,1.1986,-8.3678,12.0950,-1.8569,-0.4807,-1.9929,0.0
1741737601.140000,285,4.1565,6.5723,5.4908,-11.6891,8.4552,-10.2112,-2.2273,-6.8572,1.4884,7.9736,3.7228,-6.4160,13.2115,-1.2293,0.5490,-1.0231,0.0
1741737601.144000,286,-0.0768,6.5153,5.2474,-15.0878,6.6936,-8.2730,-0.3169,-7.4077,2.7051,11.7357,3.5215,-6.7468,12.2604,-2.8892,1.7548,-3.8208,0.0
1741737601.148000,287,0.7982,3.6190,5.8425,-16.9569,9.8077,-6.9691,-0.7990,-6.1535,4.0393,9.4854,4.6856,-5.5551,13.3784,-1.2772,0.1257,-1.1647,0.0
1741737601.152000,288,2.8531,6.7369,7.4399,-20.1740,10.5937,-6.7123,3.2192,-4.2374,7.5129,12.0392,4.9633,-4.4893,15.5526,-0.7330,2.7119,-0.4780,0.0
1741737601.156000,289,0.4674,7.0899,7.3420,-17.0608,9.9054,-7.3180,2.4148,-5.2255,6.4971,10.7426,9.4788,-4.2436,15.2593,0.7313,4.7427,0.9232,0.0
1741737601.160000,290,3.1242,8.8324,7.2213,-20.8504,10.6815,-8.6298,5.1417,-3.3974,9.0714,8.7259,7.8793,-3.5456,15.3410,-2.0016,6.1991,1.9462,0.0
1741737601.164000,291,3.9811,10.1181,8.8888,-17.0812,7.8173,-5.8198,6.0733,1.2732,7.4167,7.0346,8.8874,-2.5960,15.2073,0.9608,8.8624,2.3815,0.0
1741737601.168000,292,5.7759,8.4962,6.4007,-17.7146,6.1439,-4.5717,7.5713,1.0810,8.0261,5.7313,10.7596,-3.9444,13.8973,2.8366,8.0700,4.8846,0.0
1741737601.172000,293,8.0734,11.7040,4.1856,-18.7727,8.7602,-5.3647,8.9478,0.7231,6.0392,3.4616,13.0954,-8.2749,12.9344,1.8889,9.3941,7.5272,0.0
1741737601.176000,294,10.1283,13.1330,7.0302,-20.9664,4.0871,-3.4782,5.9304,1.7170,6.3511,3.3954,10.4508,-7.7721,10.5120,2.0897,11.2746,9.6957,0.0
1741737601.180000,295,7.7612,10.8171,4.8041,-16.8308,2.6354,-4.0052,6.7661,2.3745,0.4283,-0.7010,10.7216,-8.1968,8.8217,0.3211,11.2800,10.8213,0.0
1741737601.184000,296,10.1832,11.1358,5.8072,-15.4627,0.3137,-1.1692,4.9987,3.0716,2.8638,2.1512,12.2484,-8.6559,10.0078,1.2084,11.6402,13.2095,0.0
1741737601.188000,297,11.4223,12.4069,9.1687,-13.2283,-0.5369,-1.4244,5.3971,4.1104,4.3831,0.7102,12.1687,-11.0979,8.6128,-1.5946,11.2923,13.8175,0.0
1741737601.192000,298,11.4294,10.2176,7.6994,-12.8182,-0.2771,-0.5944,2.8216,5.4977,2.6475,0.6872,15.2188,-10.4487,8.8445,-1.6347,11.4398,16.2110,0.0
1741737601.196000,299,11.4974,10.1999,9.6467,-13.5574,-3.3985,-0.0992,4.1784,1.2504,4.3739,1.4990,15.0959,-8.1744,9.9896,-1.2054,11.6186,16.1380,0.0
1741737601.200000,300,13.5445,8.6737,8.7876,-10.9752,-1.5441,2.9649,3.8007,-2.4903,3.8988,3.5527,12.7383,-6.6289,5.9731,-1.1637,11.2305,16.4128,0.0
1741737601.204000,301,11.5150,5.1017,11.1788,-7.1212,-3.1351,2.5359,8.7635,-1.9893,4.5948,2.0775,16.0219,-3.3686,5.4710,-1.9332,13.8172,12.9111,0.0
1741737601.208000,302,10.6974,3.9836,13.6694,-5.8281,-2.5551,3.7281,6.2948,-2.6948,7.7997,3.1523,15.6959,-5.8396,5.1661,-1.5272,12.9085,13.8010,0.0
1741737601.212000,303,12.1865,3.4448,11.8717,-5.3515,-4.0206,1.8844,9.2077,-5.8090,7.4653,2.2363,15.0379,-0.5691,4.1030,-0.3943,14.8634,9.8190,0.0
1741737601.216000,304,12.8716,3.9933,13.6409,-4.4537,-4.7845,1.1939,9.0546,-4.6683,7.6900,2.3822,17.0040,1.1643,3.5249,0.1959,14.3747,9.3094,0.0
1741737601.220000,305,14.1673,2.2947,10.9575,-1.6596,-3.0514,6.0753,11.4098,-6.1027,9.8108,4.2410,16.7740,1.2316,3.1382,-0.2633,14.7706,9.5641,0.0
1741737601.224000,306,14.0976,2.6766,7.4734,-0.6553,-7.7156,1.7956,12.7025,-6.6041,10.9187,3.0323,15.6991,3.2860,-1.4066,1.0142,16.0803,9.3914,0.0
1741737601.228000,307,19.9496,0.1807,6.3173,2.4534,-7.3520,2.3596,9.7787,-7.0500,10.9036,5.6041,15.0730,5.6545,-2.5726,3.3186,16.9108,8.9439,0.0
1741737601.232000,308,15.8234,1.5254,3.7061,4.0196,-7.6875,4.7236,10.6281,-3.9254,13.2824,4.8948,11.5250,2.5098,-4.0878,1.3059,15.1769,9.2143,0.0
1741737601.236000,309,15.6610,3.8425,4.7996,6.0824,-5.1208,2.9812,9.8605,-3.7138,14.1601,4.8611,10.4844,2.8157,-4.7841,0.5380,14.8067,10.0141,0.0
1741737601.240000,310,12.9866,2.2864,0.4902,7.2986,-7.0136,2.7907,6.1586,-0.8590,11.2849,6.0460,7.7697,3.9021,-5.6235,2.2644,14.2743,9.6940,0.0
1741737601.244000,311,11.5282,0.8904,-0.6034,9.6543,-6.8999,3.4675,4.1855,1.1213,12.3809,8.5414,6.0233,6.1320,-4.7906,3.4395,12.6462,8.0593,0.0
1741737601.248000,312,13.1368,1.6951,-0.6347,12.5575,-5.9990,2.3951,0.9012,2.6467,13.5945,10.1403,3.1673,8.3695,-5.5619,1.1731,12.0746,10.4699,0.0
1741737601.252000,313,10.1397,3.7908,-2.8036,13.9041,-4.0531,4.9999,1.3121,6.2479,14.5698,11.2415,-1.5738,8.8545,-3.6289,0.3166,9.3640,9.3214,0.0
1741737601.256000,314,9.2450,7.9307,-3.7871,16.0746,-0.7653,5.5185,3.1349,5.7470,14.8262,10.4967,-2.6622,13.9011,-5.2185,2.2951,4.7862,9.0781,0.0
1741737601.260000,315,7.4866,6.3718,-6.3958,15.3094,-1.8967,1.9541,2.1543,8.2199,13.9922,8.9930,-3.8987,13.1099,-1.8433,4.9244,4.3141,6.5045,0.0
1741737601.264000,316,5.4478,6.0530,-8.0451,13.0404,0.9709,1.0854,1.3766,8.8738,10.9107,8.1938,-4.8728,16.3628,-1.3130,5.1517,3.3988,9.7521,0.0
1741737601.268000,317,4.4091,6.4725,-9.3514,13.7152,-1.3911,1.0104,1.0298,9.2892,10.6806,10.5823,-5.2526,16.9959,-0.0252,3.2191,2.7026,9.2898,0.0
1741737601.272000,318,4.4153,5.1594,-9.0179,12.7972,-0.3662,0.4275,-1.7941,11.1987,10.5922,10.1024,-5.5960,15.0018,-0.1605,6.4682,0.2546,6.5759,0.0
1741737601.276000,319,0.7569,8.3240,-11.4726,11.3590,-2.2560,-0.0942,0.1502,10.0983,6.5505,8.5900,-1.7169,17.2289,2.2230,7.4685,-1.2073,4.7401,0.0
1741737601.280000,320,0.1695,6.2265,-12.5785,11.6582,0.4633,2.4670,1.9899,11.3904,5.7453,8.7011,-2.2010,15.8419,4.2612,8.6508,-0.9341,5.6950,0.0
1741737601.284000,321,0.1177,9.5714,-13.8677,10.5642,-0.3748,1.8012,-0.0432,13.4046,5.1360,10.0608,-0.4184,16.9251,1.7805,13.8027,-0.3937,4.5969,0.0
1741737601.288000,322,-2.4496,10.0721,-15.3102,8.2347,0.0724,1.4835,0.2440,12.5142,2.9349,5.1816,-3.1131,15.7662,3.7263,13.1696,-2.4648,2.9117,0.0
1741737601.292000,323,-3.2864,10.5630,-14.9407,6.0520,-1.6074,3.4270,-0.5749,13.6361,1.3193,7.0824,-0.0813,11.3022,5.8911,14.3686,-1.7423,2.4271,0.0
1741737601.296000,324,-3.6871,8.7452,-15.3423,7.9925,-3.1854,3.5445,-2.3370,14.3512,-0.1800,7.6807,0.4963,11.5110,3.2853,15.1722,-0.5714,1.1037,0.0
1741737601.300000,325,-5.4975,7.7109,-17.1449,7.0221,-4.5820,6.3531,0.0263,14.8890,-0.7140,6.9657,-0.1823,12.0657,2.4256,17.8700,-1.2762,2.5894,0.0
1741737601.304000,326,-8.2371,8.5920,-17.6121,7.1999,-6.0400,8.5977,-1.5819,13.7335,-3.0843,6.3422,-0.8014,8.9488,1.4657,19.7711,0.0585,-0.3500,0.0
1741737601.308000,327,-8.1360,8.4794,-17.1383,7.7575,-6.6765,9.7031,2.6347,13.8543,-5.5859,7.3273,-0.9638,10.3397,2.3866,18.6329,-0.8015,-1.3685,0.0
1741737601.312000,328,-13.6626,6.6715,-19.6912,7.3004,-7.2976,12.3841,1.9453,14.6903,-3.7986,6.4314,-0.2752,7.5729,-0.2831,18.2770,0.6726,0.2346,0.0
1741737601.316000,329,-12.1608,4.2282,-18.0194,6.1453,-11.6055,14.2660,3.8239,15.2936,-5.8145,7.6785,-1.0335,8.4999,0.1882,16.8752,-0.6368,-1.9412,0.0
1741737601.320000,330,-15.0467,-0.9801,-16.9632,6.3802,-11.2050,13.4787,5.4367,14.7699,-4.6597,5.8463,-1.5160,7.2631,-2.9926,16.2410,1.0171,-3.0775,0.0
1741737601.324000,331,-15.1289,-2.3783,-16.1563,5.0817,-12.7897,13.4779,3.5131,14.5086,-3.8785,4.5343,0.6824,6.9583,-1.1606,12.6405,0.2650,-3.1498,0.0
1741737601.328000,332,-18.8748,-3.7661,-16.1866,5.3394,-11.9120,17.6274,3.8811,13.7415,-5.8462,3.6304,-0.0827,6.5220,0.1260,12.4883,-0.0150,-2.4300,0.0
1741737601.332000,333,-17.0307,-2.1972,-12.7375,3.7397,-12.3620,13.1321,7.0732,14.4192,-5.3179,2.4736,0.1311,1.7588,-4.4183,9.2946,-0.0331,-3.0205,0.0
1741737601.336000,334,-17.8178,-5.1920,-12.8954,0.7409,-9.4345,12.6557,2.6907,14.7529,-5.9306,0.6121,1.2756,0.6135,-4.1205,7.7256,-0.4943,0.8308,0.0
1741737601.340000,335,-14.7128,-5.5499,-13.4302,3.3274,-11.9063,12.8152,5.0449,14.7460,-6.3629,-0.8676,0.8058,1.7002,-9.7648,5.5971,0.1618,2.8049,0.0
1741737601.344000,336,-14.4204,-8.1866,-6.7085,4.3760,-10.2801,12.0444,4.9869,14.8522,-4.7662,-2.1365,1.0277,0.8668,-6.7679,2.8392,1.7496,2.0965,0.0
1741737601.348000,337,-13.8495,-6.7521,-6.4250,5.7205,-9.4747,11.7824,4.0407,12.8419,-3.6705,-2.4960,-0.1315,-3.4872,-9.1692,2.5071,2.9297,3.7210,0.0
1741737601.352000,338,-11.0467,-8.6963,-5.0190,7.3829,-9.3272,14.6136,1.6680,11.6358,-5.1458,-5.3845,-1.1696,-3.9948,-8.7462,0.7266,3.8971,7.0000,0.0
1741737601.356000,339,-11.1054,-8.4006,-6.3706,8.0126,-9.5126,15.8171,1.9100,12.6636,-2.8805,-9.4588,-1.3575,-5.2331,-10.2941,-2.1344,5.1120,8.2040,0.0
1741737601.360000,340,-9.3021,-8.7091,-5.6290,6.3459,-7.9554,15.2709,-0.6564,9.8070,-4.7465,-10.3438,-2.6015,-3.3456,-11.5940,-4.6202,1.6194,9.5513,0.0
1741737601.364000,341,-6.6380,-8.5429,-4.4451,7.2899,-8.7085,13.8946,-1.8438,8.5300,-4.8136,-9.1145,-2.2427,-6.3646,-9.5980,-6.2745,0.9290,6.8701,0.0
1741737601.368000,342,-6.2865,-13.3672,-1.4814,6.4339,-10.9956,10.1038,-4.9758,6.9076,-5.5659,-11.4086,-4.5138,-6.4213,-10.7046,-6.9234,-0.0998,8.3513,0.0
1741737601.372000,343,-1.7141,-12.8923,2.4131,6.6206,-7.2254,8.2934,-5.6520,3.3797,-6.0577,-12.3282,-6.4048,-7.4738,-9.1338,-8.8492,0.2703,6.4516,0.0
1741737601.376000,344,-2.7248,-13.4582,3.4690,5.6083,-5.2425,9.7947,-5.2563,2.4262,-7.7070,-13.6436,-5.9491,-8.2089,-8.6872,-9.5495,-2.1058,4.1722,0.0
1741737601.380000,345,-1.4739,-14.2787,4.1893,5.4102,-5.8618,6.0251,-5.5663,-1.7015,-1.9853,-10.4590,-6.4485,-5.0548,-10.0581,-9.9596,-3.3200,4.1339,0.0
1741737601.384000,346,-2.8815,-14.0043,7.0325,3.3143,-3.5737,1.4847,-8.3838,-4.1576,-4.1612,-8.4165,-7.3801,-5.1629,-12.1781,-10.4288,-4.7703,-1.5222,0.0
1741737601.388000,347,-1.6035,-17.6282,7.2009,3.1551,-3.4876,0.3558,-8.7206,-4.8590,-3.8091,-9.3844,-10.1199,-4.5507,-11.1113,-12.8582,-3.1573,-1.0386,0.0
1741737601.392000,348,0.1258,-15.3214,7.1561,0.2414,-1.7450,-0.3500,-10.2528,-6.4312,-1.3849,-8.0310,-8.5612,-3.3307,-9.7536,-10.0008,-4.0085,-1.8292,0.0
1741737601.396000,349,-0.9646,-15.5930,7.3014,2.4202,0.8804,-1.2111,-9.3992,-7.3159,-0.2105,-10.0476,-7.0846,-4.4167,-8.7333,-11.9167,-5.0394,-1.0095,0.0
1741737601.400000,350,-1.4147,-14.3757,3.4162,3.8078,-1.1326,-3.3107,-12.8271,-7.0228,-2.4025,-7.6441,-8.9113,1.3213,-9.6429,-10.2217,-2.9744,-0.7798,0.0
1741737601.404000,351,2.6862,-12.3142,4.9278,3.5684,-1.6178,-5.6634,-10.5698,-7.6954,-2.5234,-8.9383,-7.2946,0.3175,-10.9700,-9.4455,-3.5234,-4.2450,0.0
1741737601.408000,352,1.9706,-10.5345,1.3149,3.8081,-0.1014,-4.6275,-9.8850,-7.1969,-1.1422,-8.5539,-9.5932,0.1147,-9.8489,-7.9778,-2.6021,-5.4549,0.0
1741737601.412000,353,-0.3043,-10.0622,-0.4154,1.4916,1.5807,-8.7652,-10.5229,-6.9243,-0.4166,-6.1270,-10.4268,0.3507,-8.7020,-7.1679,-4.0022,-6.3529,0.0
1741737601.416000,354,-0.9503,-7.8927,-1.1574,0.2108,-1.3018,-6.0426,-10.7420,-7.4625,-0.0857,-5.7378,-9.9231,-0.3110,-7.0657,-9.9347,-3.0923,-6.7704,0.0
1741737601.420000,355,0.1218,-6.3314,-1.5421,-1.4577,1.6347,-8.7723,-13.8202,-6.9501,-1.7226,-2.0314,-11.6395,-1.5185,-4.5008,-8.7601,-3.7882,-5.3606,0.0
1741737601.424000,356,0.8920,-3.8866,-1.8881,-2.0130,3.0567,-10.0633,-11.5783,-5.4459,-0.7819,-3.3697,-11.3341,-2.8036,-3.3963,-11.1678,-6.2819,-5.4438,0.0
1741737601.428000,357,-1.2623,-2.8440,-4.4225,-4.8283,3.3923,-12.5030,-11.2258,-4.6420,-1.7511,-1.5668,-11.5131,0.7039,-2.3421,-11.7610,-8.1068,-1.7410,0.0
1741737601.432000,358,-1.5322,-2.6935,-2.4630,-6.0694,3.5580,-11.3337,-12.0290,-5.6129,-1.9938,-2.7270,-10.0358,-2.1575,1.8827,-10.6909,-8.0309,-7.8174,0.0
1741737601.436000,359,-4.7358,-2.9036,-2.7176,-8.3341,7.1807,-11.1479,-10.2228,-6.6935,1.6689,1.1194,-9.5418,-1.6173,3.6912,-11.3916,-6.6051,-4.6730,0.0
1741737601.440000,360,-3.6049,-3.4971,-2.3089,-9.9311,7.2592,-12.9645,-9.6557,-5.7070,-1.0879,2.9782,-11.6710,-2.6219,5.7362,-11.1051,-6.8105,-5.1264,0.0
1741737601.444000,361,-4.0032,1.8130,-0.8657,-10.6280,8.1739,-11.5881,-8.6928,-6.4966,-2.9367,0.9755,-10.7681,-1.4325,6.5107,-11.1070,-6.1284,-3.4750,0.0
1741737601.448000,362,-2.8776,2.7140,-1.1650,-11.3781,7.5040,-13.0827,-8.5503,-4.2524,-3.1134,-0.6841,-6.3268,-2.9901,6.1815,-10.4506,-3.9107,-4.5260,0.0
1741737601.452000,363,-5.3212,4.3040,-3.1932,-11.6825,8.1743,-14.3849,-6.9188,-8.0625,-4.1715,-2.5003,-4.3443,-3.5317,6.8103,-9.2981,-6.0318,-3.8759,0.0
1741737601.456000,364,-7.7264,3.3022,-3.4518,-14.0638,7.3111,-15.3411,-6.7990,-7.2975,-4.9990,-1.0230,-1.9656,-7.0693,8.8859,-6.6827,-6.2878,-3.1611,0.0
1741737601.460000,365,-2.7833,6.4182,-0.3426,-13.6947,5.4360,-12.0714,-6.4246,-4.0713,-4.2525,-0.9677,0.1668,-6.9074,8.4970,-8.8049,-3.4291,-0.9255,0.0
1741737601.464000,366,-3.0891,7.5368,-3.7363,-12.8539,4.4969,-12.1000,-5.3042,-3.5384,-4.3783,-0.8095,0.7613,-11.3836,11.2940,-4.0269,-1.2723,0.4186,0.0
1741737601.468000,367,-0.8514,8.3608,-3.6988,-14.3742,2.4787,-8.9298,-2.2520,-2.9772,-6.0946,-1.7055,0.2250,-10.6477,8.5499,-2.4950,-0.4978,1.3320,0.0
1741737601.472000,368,0.4850,6.1716,-2.5289,-15.4832,1.7475,-9.5013,-4.1589,-2.4867,-5.2545,0.7273,2.5313,-13.6914,6.8041,-3.3708,-0.4365,-0.7093,0.0
1741737601.476000,369,-0.3120,5.1572,-2.7815,-12.9973,-0.3456,-9.5917,-3.6852,-2.1521,-3.8429,0.1595,0.7563,-15.4588,5.5618,-3.5140,1.3235,2.8108,0.0
1741737601.480000,370,0.7678,5.4735,-0.0555,-13.0451,-2.2340,-7.4203,-3.0808,-5.3349,-5.7796,-1.1035,5.3141,-12.0857,5.0980,-2.3478,1.7420,3.4180,0.0
1741737601.484000,371,-0.7589,2.4005,0.9331,-16.8868,-2.7176,-7.2898,-3.1308,-2.7130,-4.9361,0.3430,4.4590,-15.6939,7.6630,-2.3535,2.5977,4.1066,0.0
1741737601.488000,372,-3.2853,3.9655,4.1063,-16.1177,-1.7153,-7.2573,0.2672,-4.9678,-1.7748,-1.9726,5.0674,-14.7886,6.0676,-3.1690,4.7529,4.6464,0.0
1741737601.492000,373,-0.3650,2.0355,2.4887,-15.9884,-2.0347,-7.3922,1.5852,-5.4831,-2.5164,1.7334,3.9702,-15.4309,5.7831,-3.9227,3.0049,2.8172,0.0
1741737601.496000,374,-1.4024,-0.3515,2.2596,-17.5898,-3.7719,-7.5920,3.3371,-6.1163,-2.2250,0.7179,7.7589,-10.2760,3.6722,-6.7741,4.8258,3.2097,0.0
1741737601.500000,375,-0.5789,0.8084,6.2899,-14.2659,-4.7318,-6.8759,2.8262,-7.9011,-1.3285,1.1838,7.4753,-12.1873,1.7801,-7.0654,6.5592,5.0390,0.0
1741737601.504000,376,0.7210,-0.8416,5.5019,-13.1918,-1.5542,-6.6886,4.3611,-6.7562,-0.4474,2.2032,6.9076,-11.5721,3.3039,-6.4354,9.4590,4.6216,0.0
1741737601.508000,377,2.0835,-0.2857,4.2185,-12.3987,-4.2656,-4.9007,3.2374,-8.0297,-1.7282,-0.9563,7.6088,-13.2969,0.4726,-4.8952,9.0113,4.9396,0.0
1741737601.512000,378,1.3281,-1.0937,4.6403,-10.9413,-4.1323,-5.6937,4.0953,-8.7716,3.1442,0.2076,8.2862,-11.7790,0.0623,-3.8648,11.5443,8.3671,0.0
1741737601.516000,379,4.2475,2.3467,4.3750,-7.8142,-4.8205,-4.7362,5.5437,-7.1865,2.5195,0.4049,8.8047,-11.2706,-2.2773,-3.8599,8.6750,7.2869,0.0
1741737601.520000,380,8.8428,3.5016,3.3423,-6.5984,-6.9122,-5.5627,3.2709,-5.6753,2.2558,1.7400,9.2983,-10.6603,-5.0140,-5.4053,9.5233,8.6478,0.0
1741737601.524000,381,6.3181,1.5352,2.3680,-2.6518,-3.1429,-3.0696,3.5294,-6.1359,4.4785,-0.3840,10.3759,-12.4936,-2.5757,-4.9303,10.1344,9.7964,0.0
1741737601.528000,382,6.8747,1.0725,2.4431,-3.0794,-5.4141,-3.3053,2.2419,-3.6861,4.9890,2.3080,7.2880,-10.3262,-3.2038,-3.0355,8.3000,9.1546,0.0
1741737601.532000,383,8.9957,2.8174,0.3337,-0.5462,-3.8657,-2.0738,1.3342,-5.2227,5.4550,0.1675,4.4507,-9.9438,-3.9637,-2.4560,5.4645,9.3063,0.0
1741737601.536000,384,7.2354,2.7594,0.4114,0.7400,-2.3651,-0.3641,-0.5356,-4.1528,7.0788,5.2419,3.1847,-7.2013,-2.5859,-1.4124,5.0446,10.2783,0.0
1741737601.540000,385,7.4287,1.5657,-2.2927,0.4177,-1.2051,-3.1308,-1.3269,-3.3339,7.1401,5.2065,1.4872,-4.7222,-2.4104,-0.8779,4.0979,11.9993,0.0
1741737601.544000,386,7.3406,2.0815,0.1416,4.7183,-3.8911,-3.4294,-3.1088,-3.6371,7.0163,5.7443,-1.1578,-0.5300,-1.6449,-1.6673,4.0296,8.7643,0.0
1741737601.548000,387,4.5847,1.7909,0.7102,1.2065,-0.5064,-3.7717,1.7764,-3.1670,9.4853,5.0325,-2.5246,0.7333,-2.0713,-1.0277,5.0870,7.1584,0.0
1741737601.552000,388,5.5504,0.3569,0.3777,2.4053,-0.3038,-3.8670,1.0476,-3.2712,8.5176,5.0336,-3.4694,1.7867,-0.3976,-0.7421,3.7611,5.3336,0.0
1741737601.556000,389,2.4838,1.4149,-0.2695,1.3940,-0.4096,-5.4246,-0.3772,-3.2891,6.5342,4.6034,-3.0853,1.6781,-1.0193,0.9819,3.1954,8.0758,0.0
1741737601.560000,390,5.1856,2.9966,-2.6340,1.3766,0.8222,-4.6018,1.5001,-2.0921,8.1431,4.8684,-1.1112,5.7037,-1.5956,2.2953,4.7040,5.8977,0.0
1741737601.564000,391,4.7944,2.4918,-5.3131,-0.0847,-0.1820,-4.2475,-0.4075,0.7187,5.4794,4.2338,0.0538,7.7872,-1.0171,7.0493,3.2097,7.0045,0.0
1741737601.568000,392,4.2014,1.6551,-3.8430,1.7706,-0.1166,-6.3086,-0.4734,0.6348,1.9776,2.7819,-1.1878,5.5875,-1.6957,3.7131,3.8888,3.8857,0.0
1741737601.572000,393,3.0566,3.7528,-4.6339,3.0660,-0.8392,-7.9621,-0.8477,-1.2191,1.8109,3.3279,-2.0688,4.6581,0.0659,3.6165,1.0042,3.2580,0.0
1741737601.576000,394,2.2118,4.4204,-6.8434,2.1083,0.1358,-7.0108,-0.4737,1.4706,1.2872,4.2451,-2.3000,4.1432,-0.5996,7.9809,3.8528,3.4519,0.0
1741737601.580000,395,2.2357,2.8724,-6.2277,-1.7881,1.5641,-3.6858,1.0208,2.1881,2.6541,4.3890,-0.7026,4.5006,0.5683,9.2514,0.4966,4.0651,0.0
1741737601.584000,396,-1.1701,5.9800,-10.9842,1.8036,-0.0997,-1.8315,-0.3412,3.5379,-0.8512,4.3076,-2.2082,6.1127,0.1526,9.5441,-0.5485,3.0120,0.0
1741737601.588000,397,-0.7708,3.1391,-10.9991,-0.4721,-0.8755,-1.9552,-0.0524,2.6307,-0.7817,3.1246,-2.7549,4.6488,1.6880,8.0370,-1.8291,1.6875,0.0
1741737601.592000,398,-2.2804,4.7097,-9.5343,1.5519,-2.1854,0.2198,0.0677,8.2621,-1.2101,3.2206,-4.6731,2.7261,3.7085,8.7083,2.3875,0.5862,0.0
1741737601.596000,399,-5.4200,4.2906,-9.7281,1.9887,-0.6051,1.1522,2.4077,4.1420,-1.3231,2.6542,-2.5816,3.4277,1.1171,9.8290,2.6575,-1.4084,0.0
1741737601.600000,400,-7.4187,4.5862,-10.2808,0.9918,-2.8245,2.7394,0.9432,5.6376,1.4260,4.2574,-4.8661,6.4169,-0.4691,9.7285,-0.1542,0.4832,0.0
1741737601.604000,401,-8.6751,2.4049,-9.9753,0.1938,-0.6612,4.5399,2.4428,4.9927,-1.8091,1.3633,-4.2225,6.4918,1.9524,11.3707,-0.6411,-1.2617,0.0
1741737601.608000,402,-10.5949,0.6165,-6.7217,0.1970,-0.7310,5.1335,4.1664,4.6913,-2.6171,5.1360,-4.0593,6.7399,0.9532,8.4824,-0.0741,-1.0537,0.0
1741737601.612000,403,-12.4763,3.1264,-8.4799,-0.5657,1.0074,4.8940,5.2503,4.5125,-4.1906,2.2715,-1.3418,7.6060,2.4250,7.3835,0.4304,-1.7650,0.0
1741737601.616000,404,-14.5199,0.1537,-6.6536,-2.8577,1.6115,5.8949,6.3685,7.9582,-4.0093,0.8118,-2.2407,5.6922,0.5012,9.4474,1.1714,0.0743,0.0
1741737601.620000,405,-11.5903,-0.6971,-4.1074,-1.3183,-1.0378,6.5685,6.1107,4.9132,-3.4452,0.2124,0.2239,3.4956,0.1922,5.9277,1.8833,0.9033,0.0
1741737601.624000,406,-10.9287,-1.3778,-2.5284,-1.4302,0.7151,5.7509,5.9002,5.6624,-4.5621,0.6516,0.2446,2.6825,2.5864,8.2401,3.1398,1.7995,0.0
1741737601.628000,407,-9.7901,-3.0850,-4.3505,-2.2421,-0.8196,5.7726,5.8898,7.2790,-1.8570,0.2220,0.3740,1.9409,-1.0199,5.8055,2.7921,3.9143,0.0
1741737601.632000,408,-8.3569,-2.8677,-2.4005,-3.8267,-0.0927,5.6965,3.5574,7.5682,-4.1960,-5.4608,2.7620,1.6325,-0.4589,5.0349,0.7573,3.4289,0.0
1741737601.636000,409,-5.9192,-2.5073,-2.0973,-1.4980,1.3853,4.9090,4.8077,4.3665,-5.3274,-3.8908,1.1679,-0.6287,-2.6718,5.4314,4.0258,2.7840,0.0
1741737601.640000,410,-5.7770,-3.5200,0.0929,-0.4415,0.9516,6.8109,2.8588,5.8811,-4.6912,-5.0724,1.5623,-2.8360,-3.1339,1.6369,2.9107,1.2997,0.0
1741737601.644000,411,-6.1830,-2.3914,1.6532,2.3180,-0.3314,6.9791,1.2604,1.4556,-5.3379,-5.3536,1.2016,-3.1341,-2.3175,3.2910,2.6947,4.1027,0.0
1741737601.648000,412,-6.0046,-3.7493,3.0999,1.0978,0.7269,8.0984,1.7019,4.1173,-4.0202,-4.6117,-0.2662,-2.4313,-4.3356,1.5535,0.1420,5.3288,0.0
1741737601.652000,413,-3.5195,0.2529,3.9169,2.3326,-1.9745,6.1811,-0.7306,4.0162,-6.7328,-6.0519,0.3218,-1.9592,-1.1749,-1.0817,1.4579,5.2467,0.0
1741737601.656000,414,-4.1412,-4.5363,5.1348,3.1819,-1.3410,6.7694,0.5703,2.5575,-2.2226,-5.6537,-2.0682,-2.3419,-4.7783,-3.8104,2.3955,3.3126,0.0
1741737601.660000,415,-3.6586,-4.3876,4.3075,5.8781,-0.9152,4.2061,1.6539,1.5116,-1.9196,-2.7358,-3.4835,-2.2230,-5.6512,-4.8098,3.6479,5.4887,0.0
1741737601.664000,416,-4.1532,-6.0136,6.3894,2.7582,1.2877,6.5551,-1.3908,1.2109,-2.3999,-5.1392,-3.1178,-2.6506,-3.4928,-3.4051,2.4987,2.9765,0.0
1741737601.668000,417,-1.4426,-8.3788,8.2835,2.4805,2.9359,7.3996,-1.6738,-1.3736,-2.3906,-5.8839,-2.6608,-4.4312,-3.4137,-4.6268,-0.2905,2.9538,0.0
1741737601.672000,418,-0.2147,-7.3479,11.0052,2.7077,3.2999,5.6516,-2.0554,-3.1420,-2.0833,-6.8304,-0.6284,-0.5570,-3.8912,-7.6857,1.1728,2.7638,0.0
1741737601.676000,419,-3.3263,-7.4326,12.8457,1.3929,4.3119,1.8079,-1.0447,-3.1572,-1.7802,-7.6008,1.8118,-4.0739,-4.5549,-7.0593,1.7869,4.2444,0.0
1741737601.680000,420,0.4879,-11.9396,12.6944,0.6446,6.6217,1.6073,-0.3833,-6.1155,-0.1101,-3.3457,-0.2289,-4.4950,-2.2051,-6.4072,2.5118,3.1037,0.0
1741737601.684000,421,1.6015,-9.2412,13.3181,0.8674,7.0842,-1.0630,-3.3652,-7.1466,-0.2201,-4.2326,0.5397,-2.8265,-2.1878,-6.3454,3.8167,0.3666,0.0
1741737601.688000,422,5.2955,-9.8951,13.5583,1.4252,7.9859,-2.2864,-3.0021,-11.3259,2.1901,-4.0526,-2.2536,-2.3080,-2.1691,-4.9540,0.0778,0.8840,0.0
1741737601.692000,423,4.7966,-7.0776,15.0994,2.5733,9.4579,-2.3842,-3.6648,-7.7499,1.1495,-4.0529,-3.7951,-1.8862,-0.3658,-6.6207,0.2842,1.2633,0.0
1741737601.696000,424,3.1356,-6.2735,13.3821,0.1227,9.9797,-4.8062,-7.0191,-9.3186,3.8274,-1.3275,-2.1054,-2.0883,-2.4111,-4.2837,1.9596,0.6536,0.0
1741737601.700000,425,5.7933,-3.1330,12.4023,3.2038,7.9241,-4.2881,-6.2256,-7.4482,2.6295,0.3972,0.3073,-1.7973,-0.7141,-6.4691,4.1752,2.5474,0.0
1741737601.704000,426,6.6225,-2.4068,12.5169,2.5634,8.9674,-4.1231,-7.4924,-3.5207,3.6206,-0.4789,-1.3705,0.8157,1.2486,-3.8218,1.0976,1.8475,0.0
1741737601.708000,427,8.2848,-1.7195,11.7970,2.7907,10.9565,-4.9060,-7.5106,-5.6025,2.7566,1.7205,-3.2618,-1.6443,2.6512,-4.8285,0.0793,1.0166,0.0
1741737601.712000,428,6.6128,1.2116,11.0549,0.7498,12.3377,-6.3974,-6.0836,-7.8566,3.8745,0.2570,-5.0081,-1.5219,4.4227,-6.4333,1.6344,0.2989,0.0
1741737601.716000,429,6.6371,1.9185,9.8400,-2.1647,10.2839,-7.9701,-6.3974,-6.2061,4.2463,4.1046,-3.4842,-1.1480,6.6529,-2.3041,-0.9012,-1.1915,0.0
1741737601.720000,430,8.2589,2.4807,6.0323,-2.6150,9.9711,-7.5261,-4.9755,-5.0794,5.1841,1.6497,-4.6598,0.3399,4.8355,-2.7498,-3.8877,1.3478,0.0
1741737601.724000,431,6.5167,2.7343,7.3584,-1.3786,11.7381,-8.9281,-7.0163,-5.5708,2.8443,2.1240,-2.1874,1.7014,6.5476,-6.6797,-2.2797,0.5765,0.0
1741737601.728000,432,8.4506,4.7502,8.1702,-4.6216,12.7523,-10.9048,-3.2620,-5.8647,4.9739,1.7202,-1.3834,-1.0421,7.9879,-5.5398,0.2435,-1.7318,0.0
1741737601.732000,433,4.9718,3.9860,10.0048,-3.2984,12.1024,-12.1393,-4.8093,-6.9210,2.5066,4.8788,-2.3753,1.1461,12.0059,-4.3866,-1.5585,2.1127,0.0
1741737601.736000,434,6.1695,5.9632,9.4421,-7.2864,12.2634,-8.8242,-0.8541,-6.0333,4.8942,4.5647,-0.1463,2.4380,6.7207,-1.9668,1.5218,1.6492,0.0
1741737601.740000,435,4.6888,11.0305,7.4850,-6.9898,12.3077,-9.4860,-3.3750,-1.5321,2.1300,4.3523,0.6947,1.4863,8.2718,-0.6110,-0.0832,1.9948,0.0
1741737601.744000,436,5.7516,11.6646,5.2907,-7.1702,11.9391,-8.8152,-0.0361,-4.9718,0.4314,5.4072,3.0948,2.7518,9.2928,0.4659,-1.2536,0.6665,0.0
1741737601.748000,437,7.6229,12.3627,7.0290,-4.8607,11.0568,-9.5837,0.1409,-4.1978,3.9333,5.0343,5.5169,-1.2679,11.9708,1.4943,2.4676,1.6741,0.0
1741737601.752000,438,5.8127,10.9482,4.1274,-5.5986,8.2430,-10.2780,-0.2116,-3.6276,2.4808,3.6684,7.5045,-2.0416,10.8006,1.2914,6.8458,4.8351,0.0
1741737601.756000,439,4.6940,11.6774,3.6371,-7.5757,9.4397,-6.1946,2.0638,-1.6415,1.9541,5.7152,12.6623,-2.3303,11.0756,4.8682,6.4659,3.2133,0.0
1741737601.760000,440,5.1209,15.4410,3.8676,-6.8420,4.7220,-6.7051,2.9301,-0.6147,1.3427,6.1302,11.2086,-3.3264,11.0716,4.6419,6.3947,6.1624,0.0
1741737601.764000,441,6.5262,12.5444,0.8741,-8.8625,5.6551,-5.1108,1.9648,-0.6784,0.1367,6.3891,11.1305,-5.2708,10.7480,5.4943,5.8829,5.5201,0.0
1741737601.768000,442,8.4005,8.4999,2.1791,-7.1488,4.6264,-3.9035,3.5882,0.1940,2.0303,7.6322,8.8736,-4.2004,13.5841,3.8309,6.5657,8.2960,0.0
1741737601.772000,443,6.2133,11.6194,2.0585,-8.0417,2.1932,-4.3122,1.9263,-2.1404,1.8460,6.7471,10.6204,-4.9539,12.2053,6.0548,5.8167,5.6850,0.0
1741737601.776000,444,5.1680,12.3851,1.1723,-9.6152,0.3494,-3.6739,4.0236,-2.4151,4.9712,6.6709,11.8149,-6.1636,11.6915,6.6418,7.9652,5.8786,0.0
1741737601.780000,445,3.1839,8.0240,1.6234,-9.1677,2.1691,-2.0383,5.6426,-1.4342,5.0319,9.2223,12.9652,-4.2334,11.9676,6.3169,9.0011,5.8709,0.0
1741737601.784000,446,5.9220,7.6257,3.2821,-9.1444,2.0893,-2.5892,7.4908,-1.1448,4.3945,8.9318,11.1708,-4.6731,11.1741,4.9983,11.6008,9.4133,0.0
1741737601.788000,447,4.0585,10.7418,-0.0399,-6.6390,0.4044,-0.4345,5.6541,1.8673,4.6054,7.7668,14.0375,-1.2838,9.8390,5.3394,11.1936,6.6305,0.0
1741737601.792000,448,4.1785,9.2124,1.8580,-6.8041,-3.0419,0.0882,9.7351,4.7460,5.6841,8.0349,12.6201,0.6855,6.8626,4.8596,11.8374,9.8895,0.0
1741737601.796000,449,4.7167,10.1652,-0.7225,-4.8048,-4.6686,0.3047,10.2710,0.9271,6.8797,8.5812,13.8340,-0.7286,4.1455,4.8269,12.4023,9.8472,0.0
1741737601.800000,450,3.9807,10.2621,0.5538,-2.2080,-4.5828,3.6999,12.1468,2.9288,4.9719,9.1080,13.3382,-3.6359,2.2715,5.5255,12.7656,10.4016,0.0
1741737601.804000,451,5.5009,12.3269,-2.8467,-1.1665,-9.0216,1.1945,11.5822,1.7147,5.9726,5.5556,13.8101,-1.0171,-0.8479,4.5816,12.7604,11.7879,0.0
1741737601.808000,452,8.2823,12.3645,-3.3832,-0.1236,-10.9390,3.5770,10.0729,3.9216,7.3378,10.6759,13.8079,-0.9279,0.8680,6.0831,12.0639,14.0028,0.0
1741737601.812000,453,8.1260,10.4922,-4.5003,-0.7443,-9.3149,3.1543,9.1269,4.1700,4.1557,5.3005,11.7280,-0.9070,-1.4431,8.1927,12.5389,13.1126,0.0
1741737601.816000,454,9.4377,11.3985,-5.3742,2.8499,-13.4532,1.3150,7.8445,1.9050,5.6136,6.2262,14.1100,0.0396,0.4793,7.3090,12.4566,15.7562,0.0
1741737601.820000,455,6.6948,8.3488,-5.6560,2.7022,-12.1295,4.6447,10.0395,2.4837,7.7680,5.8567,10.0855,-0.3134,-0.9749,5.9463,11.4683,12.3971,0.0
1741737601.824000,456,5.2976,8.0268,-6.6067,3.1493,-12.0098,6.4041,8.1637,4.8851,8.7982,4.7986,9.1172,2.7100,-4.1271,7.8398,10.9372,13.3322,0.0
1741737601.828000,457,6.3033,5.9325,-6.1406,4.6184,-12.3121,5.2141,8.2810,4.5914,8.5880,7.1833,6.1670,1.8915,-1.1219,9.5594,10.7110,15.1336,0.0
1741737601.832000,458,8.8478,5.3881,-8.7011,3.5909,-11.8092,6.6409,6.9035,6.9076,8.5853,7.1849,5.7096,5.1564,-2.7257,7.4565,10.3845,14.7245,0.0
1741737601.836000,459,6.1076,4.7291,-8.8560,6.1702,-12.5238,4.8409,5.8026,6.3956,10.1126,5.9678,1.3714,4.6504,-5.1378,6.0995,9.9656,10.3343,0.0
1741737601.840000,460,3.4220,2.2998,-7.7864,3.9749,-11.0280,5.1603,6.3940,3.9034,7.9218,6.9101,1.4614,5.8884,-5.4144,8.9615,9.8949,9.8773,0.0
1741737601.844000,461,1.9471,1.0479,-8.4501,6.1063,-12.5241,5.1185,4.5853,4.7447,8.9870,4.9844,-2.0131,10.4091,-5.1052,7.6765,8.8372,10.8413,0.0
1741737601.848000,462,1.4181,2.2429,-9.7099,6.5979,-10.4353,6.1091,6.6606,2.8609,8.0918,4.5942,-4.8773,11.2765,-8.6770,8.0303,8.2141,10.1911,0.0
1741737601.852000,463,0.6600,2.3201,-9.4320,6.4518,-12.7792,6.2942,3.7909,4.8774,7.5197,3.4868,-2.6347,12.3618,-9.2837,9.5794,8.4264,8.9969,0.0
1741737601.856000,464,-2.9686,0.4499,-15.8139,6.8393,-13.5732,3.6992,5.2824,7.8792,3.8403,0.1476,-2.1511,12.0071,-10.5982,9.9677,5.4824,5.7513,0.0
1741737601.860000,465,-0.5653,-1.2566,-17.2584,7.9021,-18.4656,4.1929,7.2365,8.3434,2.8696,1.3838,-0.5440,12.8793,-11.8826,9.1728,7.7055,4.8950,0.0
1741737601.864000,466,-2.4064,-2.6358,-18.8055,9.7043,-16.3624,7.5946,4.9309,5.9409,1.2928,1.1797,-3.9226,13.2502,-15.2468,10.4392,4.8684,6.0960,0.0
1741737601.868000,467,-3.8218,-2.9638,-19.1221,8.6196,-16.3661,6.2867,7.2445,8.3311,1.9596,2.1324,-4.9846,10.5949,-11.9418,9.7108,3.6726,1.2096,0.0
1741737601.872000,468,-5.1525,-3.6990,-20.5992,9.9569,-19.1796,7.6718,4.7211,8.8958,2.4237,1.9145,-8.2197,11.2761,-13.3587,8.9790,3.0376,5.4498,0.0
1741737601.876000,469,-6.7649,-3.0699,-24.2724,8.5397,-18.1589,9.4419,2.6579,7.9736,3.4335,-0.6338,-11.6295,12.7921,-13.2422,7.9491,-3.0355,4.2317,0.0
1741737601.880000,470,-7.1549,-5.9347,-24.2912,10.9285,-19.5641,9.1398,1.7676,10.4475,0.3621,1.0295,-9.7776,10.8853,-17.9268,8.5922,-1.8670,0.7843,0.0
1741737601.884000,471,-11.5586,-7.3384,-22.1186,11.0203,-16.9897,10.3919,0.9075,7.3708,-3.2797,0.2380,-13.1080,11.4892,-15.1971,9.5194,-5.0695,-1.5431,0.0
1741737601.888000,472,-15.2853,-5.7628,-22.3027,12.3776,-18.1288,10.9867,-2.0808,9.8506,-1.9380,-0.5802,-12.5368,14.3260,-15.0354,7.5516,-6.3393,-1.4186,0.0
1741737601.892000,473,-15.8851,-7.7978,-21.9489,9.8704,-17.5810,9.3716,-2.5834,9.2432,-3.3343,-4.4525,-12.9825,12.4975,-15.8659,6.7752,-3.3735,-1.5841,0.0
1741737601.896000,474,-17.6985,-10.3838,-20.1408,9.4066,-16.2002,8.5164,-3.3708,7.4464,-3.4288,-3.8360,-14.4077,12.0377,-15.9584,5.4119,-5.9063,-2.2248,0.0
1741737601.900000,475,-17.1939,-11.6036,-23.4063,8.2897,-15.5288,6.7674,-2.7989,8.4320,-2.3353,-3.1938,-15.2407,11.7882,-16.3729,2.5095,-5.1161,-2.9654,0.0
1741737601.904000,476,-18.9726,-15.5997,-23.2579,4.5528,-14.4761,5.9949,-3.3592,8.2450,-5.1329,-4.8548,-15.9861,10.4138,-14.8133,3.1737,-6.9965,-4.7648,0.0
1741737601.908000,477,-20.6560,-16.2137,-18.9834,7.2454,-14.5814,7.7010,-3.0875,9.1109,-6.0936,-6.2016,-15.8377,8.7760,-16.7684,4.3100,-5.5598,-2.6378,0.0
1741737601.912000,478,-23.3440,-15.9257,-22.6559,6.2288,-14.8343,3.1848,-2.2500,7.5837,-7.0614,-9.2132,-17.1462,5.7420,-15.7824,2.1253,-5.9112,-4.5009,0.0
1741737601.916000,479,-19.9516,-18.3894,-21.2840,6.6642,-11.6004,5.1009,-5.1775,4.5414,-7.9590,-9.0786,-18.7067,7.1782,-17.4686,4.2034,-7.8320,-5.0075,0.0
1741737601.920000,480,-17.8942,-17.3482,-18.7946,4.1061,-12.2745,5.0011,-5.9058,4.6960,-9.4786,-9.7782,-19.8028,0.7685,-15.9805,1.8216,-7.4620,-4.8892,0.0
1741737601.924000,481,-18.9522,-17.8266,-18.6067,5.7790,-8.6462,6.8191,-9.1505,8.1124,-8.0797,-9.8085,-21.7047,2.9034,-17.6977,0.5090,-7.4757,-3.4226,0.0
1741737601.928000,482,-17.0372,-18.8516,-18.4237,5.8915,-11.8127,3.9025,-11.3707,6.8034,-10.7414,-7.4532,-21.9182,2.3045,-17.7507,0.6405,-10.0167,-9.8817,0.0
1741737601.932000,483,-21.5393,-18.1065,-17.7053,5.2320,-9.7112,3.1830,-10.8745,3.5266,-10.3084,-11.4848,-21.9332,0.0622,-18.2273,0.1157,-10.8464,-10.4467,0.0
1741737601.936000,484,-21.1379,-16.9061,-16.8556,4.5716,-8.8211,2.5782,-11.3113,2.4716,-10.4948,-10.4019,-21.6149,-1.7223,-17.2488,-2.6019,-11.3576,-9.8956,0.0
1741737601.940000,485,-21.1033,-15.4957,-15.0827,5.0640,-6.4293,3.3993,-10.7625,1.9268,-10.9029,-10.6947,-24.6249,-5.4391,-15.8588,-8.1752,-12.0234,-9.6799,0.0
1741737601.944000,486,-24.1813,-16.1167,-13.6596,4.9136,-6.1604,4.2361,-9.0996,1.6785,-9.9987,-12.0051,-24.2385,-2.1224,-15.8193,-6.8683,-12.3559,-8.4188,0.0
1741737601.948000,487,-24.3634,-15.4140,-12.9040,6.2303,-5.6296,0.9163,-10.2034,3.1556,-11.6460,-11.5778,-24.1853,-4.3777,-16.3700,-8.3402,-10.3799,-9.6181,0.0
1741737601.952000,488,-23.2146,-15.9775,-11.5459,4.8525,-2.6274,0.3233,-13.9077,1.6987,-12.2249,-12.3149,-21.3686,-2.3725,-14.2020,-10.4362,-13.7457,-10.9880,0.0
1741737601.956000,489,-23.3876,-16.7969,-8.7754,3.9386,-3.1794,1.8260,-13.8458,0.9695,-12.6116,-10.2756,-23.6270,-4.3568,-12.3389,-12.3250,-13.5196,-9.1473,0.0
1741737601.960000,490,-20.4241,-16.9709,-4.0958,1.8220,0.3610,-0.0349,-15.9355,-3.3557,-13.6271,-13.4128,-17.5352,-5.5921,-10.7860,-12.5335,-15.0180,-10.4795,0.0
1741737601.964000,491,-18.7759,-20.8928,-2.6624,0.9415,0.6773,-2.3282,-14.7809,-5.4787,-12.7811,-13.4046,-18.0668,-6.6156,-11.4751,-10.0564,-16.4063,-11.3521,0.0
1741737601.968000,492,-23.1229,-20.6459,-2.6837,-5.1741,5.1422,-4.0630,-17.3884,-4.8046,-13.1430,-12.6539,-19.1399,-8.7627,-7.9678,-13.5963,-15.4578,-10.8072,0.0
1741737601.972000,493,-19.8567,-19.3388,0.6235,-4.5738,6.3713,-6.9867,-14.8567,-4.6001,-15.9266,-12.5577,-17.3424,-9.7361,-5.3300,-14.4329,-13.5856,-10.0507,0.0
1741737601.976000,494,-15.5456,-15.0505,4.8006,-5.5495,7.8170,-8.5657,-16.3641,-6.5246,-12.0434,-11.6158,-15.4092,-11.3455,-5.7286,-15.9739,-12.3372,-8.6201,0.0
1741737601.980000,495,-13.9554,-15.4733,3.5138,-8.0658,10.7437,-9.3019,-14.7944,-8.5412,-12.5449,-10.4284,-14.6004,-14.3175,-1.4110,-15.4846,-12.4945,-10.8817,0.0
1741737601.984000,496,-10.9865,-16.8233,7.4451,-8.8557,14.5663,-10.8567,-17.2400,-8.3152,-14.4669,-10.6745,-13.5413,-15.6739,-0.0803,-16.5095,-9.4854,-9.0620,0.0
1741737601.988000,497,-9.9388,-11.8450,7.7404,-13.6745,11.5870,-9.6052,-16.8904,-7.9634,-14.7496,-10.2215,-17.5056,-13.9816,-1.4359,-16.6782,-8.8549,-9.1356,0.0
1741737601.992000,498,-7.4393,-13.6490,7.0135,-10.9380,12.7524,-12.9608,-19.2531,-9.2352,-11.1079,-8.8789,-16.7106,-14.6448,0.2970,-16.7815,-7.1082,-10.4808,0.0
1741737601.996000,499,-6.9893,-12.0884,8.8300,-15.4829,16.4131,-13.1113,-16.4851,-10.6956,-9.7890,-7.4120,-15.6059,-15.5496,0.8175,-16.8261,-9.5815,-9.4781,0.0
1741737602.000000,500,-10.4017,-9.9486,7.5281,-14.4112,17.1155,-14.3258,-14.8043,-10.8488,-10.3206,-6.3644,-12.9042,-15.6800,2.9873,-16.7363,-7.6940,-10.2363,0.0
1741737602.004000,501,-6.2816,-7.9675,7.9430,-14.8461,15.3616,-14.9363,-16.1416,-9.4330,-10.1497,-7.2413,-15.7186,-16.3216,2.1022,-18.3997,-5.5845,-9.4605,0.0
1741737602.008000,502,-5.9477,-5.8933,12.0631,-16.5373,15.0879,-13.9696,-15.4816,-10.4109,-5.7432,-3.0547,-9.1411,-15.2669,4.4923,-15.2431,-8.9852,-8.0045,0.0
1741737602.012000,503,-5.1607,-4.7967,11.7610,-16.0967,16.5064,-13.5431,-14.9750,-10.9114,-5.9491,-4.6859,-9.3618,-15.8786,8.7828,-16.3317,-8.3283,-10.2335,0.0
1741737602.016000,504,-3.6665,-6.5977,14.1879,-17.7731,17.7172,-14.9481,-13.8527,-14.1076,-4.3445,-7.0104,-7.9224,-16.1487,10.2646,-16.9143,-8.1586,-7.3280,0.0
1741737602.020000,505,-3.7589,-3.0014,14.2803,-17.9372,19.2663,-16.3164,-11.8950,-12.5728,-4.5626,-4.3552,-3.2115,-17.6945,14.2818,-19.6789,-8.2186,-5.9400,0.0
1741737602.024000,506,-1.0261,-0.6410,17.2586,-19.7535,21.8660,-18.7485,-11.6804,-15.1579,-4.0836,-3.7278,-2.2278,-17.6482,12.2129,-20.1564,-6.3077,-2.8881,0.0
1741737602.028000,507,0.5446,2.9181,18.4618,-18.5613,21.0873,-20.4200,-10.3312,-14.0920,-0.4108,-3.9703,-2.5909,-18.9934,16.1011,-18.8999,-3.9887,-2.2921,0.0
1741737602.032000,508,1.7158,4.8780,21.0220,-19.4593,21.5175,-18.8164,-10.1459,-15.7198,-2.6686,-2.7148,1.4376,-19.5216,16.0855,-19.8274,-4.3414,-5.1733,0.0
1741737602.036000,509,5.1392,5.4613,21.2697,-23.0754,22.0606,-22.0278,-9.3148,-16.5932,-4.3951,-4.1520,3.1141,-15.4475,17.5475,-13.9668,-2.7419,-0.1336,0.0
1741737602.040000,510,7.9917,8.5387,23.1423,-20.6660,24.6938,-20.6083,-7.2458,-17.4708,-2.1297,-0.5782,7.5396,-20.3463,19.6193,-15.2764,2.2407,1.0408,0.0
1741737602.044000,511,10.5739,9.5240,21.8445,-21.9286,24.8973,-20.1701,-7.0802,-15.1274,-4.6993,-0.4858,10.0399,-23.1685,21.2667,-15.5018,1.1833,2.6059,0.0
1741737602.048000,512,14.1324,10.9448,24.2652,-21.1080,21.9533,-18.8512,-7.6279,-15.2445,-2.4961,-1.0778,10.7496,-20.4335,21.4568,-12.7993,4.7600,4.4150,0.0
1741737602.052000,513,11.5701,14.5535,24.5290,-21.6788,23.0322,-20.3175,-5.9063,-15.6767,-2.5215,1.3302,12.0179,-23.3524,21.4748,-13.8095,3.6115,4.3361,0.0
1741737602.056000,514,15.5958,12.6643,23.8552,-22.0518,20.7557,-20.7881,-3.6536,-16.8910,-1.6045,1.9232,10.8820,-21.8263,20.8695,-11.7095,7.3504,7.0213,0.0
1741737602.060000,515,18.6522,13.4075,21.9850,-21.0349,18.9739,-21.0894,-2.6286,-17.2576,0.3852,3.4031,14.6780,-20.7669,23.3083,-9.2693,8.6933,5.3922,0.0
1741737602.064000,516,19.5282,13.3086,24.2925,-20.9983,18.7064,-21.1415,-3.8255,-13.4635,3.2672,5.6382,14.1826,-18.0962,23.1616,-8.9037,9.7400,8.1194,0.0
1741737602.068000,517,20.6866,16.6249,25.0532,-20.0146,21.4683,-16.8076,-1.9970,-15.1927,4.3179,7.2878,17.9628,-17.0944,23.7001,-8.5015,12.0546,7.0729,0.0
1741737602.072000,518,23.3464,17.1474,24.6523,-21.8616,18.2654,-18.8297,0.5752,-14.5480,7.2643,10.9348,18.7513,-15.4323,26.2634,-8.1783,14.3369,8.8102,0.0
1741737602.076000,519,21.9046,19.5245,26.3841,-19.4284,21.9421,-14.9912,2.4689,-13.7652,8.2439,14.2890,20.3344,-14.6597,24.6764,-9.0407,15.4945,9.7204,0.0
1741737602.080000,520,20.8340,17.8593,22.9022,-17.7255,20.3341,-16.4622,3.6054,-12.2242,10.8561,15.8821,18.8273,-13.4806,23.6796,-8.4053,15.8011,9.8664,0.0
1741737602.084000,521,21.7424,21.3791,19.7560,-16.0894,15.8986,-13.4972,4.6996,-12.8755,12.4601,17.9741,19.1638,-9.3295,22.2499,-2.9718,17.5011,12.6321,0.0
1741737602.088000,522,22.8459,22.7702,20.9334,-11.0618,15.8929,-12.3288,7.5806,-11.6966,13.0215,15.6244,23.4416,-7.8831,20.6496,-3.1373,19.1844,12.9805,0.0
1741737602.092000,523,22.4787,24.3561,21.3952,-11.6578,14.2123,-9.2323,11.6173,-7.6740,15.3905,16.6904,21.8940,-6.0317,22.8124,-0.0577,21.5014,12.2932,0.0
1741737602.096000,524,23.3778,25.8476,17.9709,-10.8491,16.5651,-7.8679,12.0334,-6.2300,16.8540,16.8193,24.0269,-5.5219,21.3648,0.2404,18.0868,12.9659,0.0
1741737602.100000,525,25.3050,27.8262,16.5744,-8.8869,13.0694,-6.6983,11.7830,-7.1164,14.7853,18.0094,25.5148,-4.6443,23.0209,3.3368,17.8320,15.6312,0.0
1741737602.104000,526,24.4818,29.7441,13.4298,-7.9609,10.6528,-8.0972,13.0686,-4.5199,18.5399,17.4655,25.4500,-2.6417,21.0100,5.2789,18.2319,17.3647,0.0
1741737602.108000,527,24.6676,27.9690,13.6587,-6.2253,8.6559,-5.6110,13.2030,-2.0783,17.1972,19.1385,25.3818,-3.4322,22.6686,6.2432,19.8709,17.4184,0.0
1741737602.112000,528,28.0806,27.6540,11.1987,-6.2148,6.0165,-5.8352,11.7274,-0.6999,18.8733,19.3952,24.1290,-1.2716,22.2511,8.7836,17.0856,18.6073,0.0
1741737602.116000,529,27.2776,27.5701,9.4129,-7.6107,4.1282,-5.7224,12.3174,1.3354,17.5146,19.4470,25.0029,-0.7513,20.4723,12.2217,20.4351,22.0174,0.0
1741737602.120000,530,23.4720,29.2552,8.6435,-7.6758,3.8591,-3.6434,14.8515,2.5558,16.1008,17.2912,23.4908,-0.3127,24.5481,13.6019,20.7128,20.8621,0.0
1741737602.124000,531,23.3308,30.1451,8.1583,-6.5331,5.1088,-3.8211,13.4325,0.6527,16.5801,18.2293,23.9017,1.7627,22.4671,14.2298,20.8371,23.2647,0.0
1741737602.128000,532,27.2264,30.1418,5.4941,-5.8870,2.4484,-1.6441,15.1892,3.3000,15.7735,18.8660,24.2137,2.8357,20.9273,15.7743,19.0992,20.1169,0.0
1741737602.132000,533,23.2201,29.3602,3.0720,-4.1799,-1.0358,0.9483,13.6845,5.0437,11.9092,18.6003,20.9559,7.0566,18.2630,17.2318,20.9196,20.7966,0.0
1741737602.136000,534,22.5492,27.4247,1.1425,-3.0957,-3.7622,-1.8198,12.9579,4.5339,13.0261,15.4380,22.1362,7.5765,16.8371,16.9318,24.3509,20.7466,0.0
1741737602.140000,535,19.0137,26.3653,1.0459,-4.0537,-3.6707,2.1012,17.1059,8.2893,15.5922,19.0159,21.0126,10.4513,13.7091,21.0851,25.5251,19.0844,0.0
1741737602.144000,536,19.4845,25.1120,-2.9849,-1.6434,-3.8244,5.2241,21.6459,8.2930,13.6357,18.5711,22.1714,12.7511,12.1481,20.9931,24.9603,20.1085,0.0
1741737602.148000,537,18.8155,21.8550,-7.6441,0.6887,-10.6191,6.9191,22.0677,11.2381,13.9501,18.9223,18.2824,15.4987,9.0525,25.6563,24.9800,19.9202,0.0
1741737602.152000,538,17.1271,23.9693,-8.9786,0.9831,-13.7752,8.1548,19.7655,12.1489,14.4001,21.0692,20.1215,18.4344,4.9858,24.5825,21.2823,18.0344,0.0
1741737602.156000,539,13.4744,23.2245,-12.4791,4.5851,-17.3859,11.0349,22.2669,14.4231,14.0266,20.0119,19.2950,18.6366,1.5634,25.1925,22.7369,17.6274,0.0
1741737602.160000,540,13.4312,22.8170,-12.8637,8.3495,-17.4546,14.9437,22.3127,15.4703,12.3493,21.3333,19.0593,18.4778,1.3278,25.6400,22.5441,20.5453,0.0
1741737602.164000,541,13.9892,17.5547,-15.5566,10.7524,-20.1346,17.3506,21.2755,17.9370,15.1484,18.6807,20.5853,22.4092,-0.5310,25.5575,22.3203,17.5892,0.0
1741737602.168000,542,10.9013,18.3178,-18.1331,13.4118,-23.0359,22.1308,22.2712,18.8383,14.7479,19.5617,17.4089,23.1112,-1.8762,24.1774,20.7304,16.2637,0.0
1741737602.172000,543,9.9389,17.2813,-19.7899,15.5137,-27.9845,20.0321,21.5480,18.5474,15.7969,19.0515,13.9962,24.0379,-5.0459,24.2985,17.7736,15.4555,0.0
1741737602.176000,544,5.4345,13.0713,-18.5712,18.1804,-26.7507,22.1138,19.8581,19.9828,16.0841,16.1108,11.9720,23.1885,-4.7756,24.8783,16.7999,13.3488,0.0
1741737602.180000,545,4.5517,10.6500,-21.5181,19.5543,-25.4676,23.8812,19.3085,18.0774,15.7698,15.7359,7.9757,21.7698,-9.8724,23.1637,13.4587,13.4957,0.0
1741737602.184000,546,0.2265,7.7154,-20.6736,17.8709,-25.1113,24.6550,18.7429,17.9999,11.9599,10.4233,5.5553,21.4313,-10.4373,20.5225,12.7617,14.0880,0.0
1741737602.188000,547,-1.5087,7.8119,-21.4715,22.1009,-26.3638,23.3850,18.5714,19.9078,11.5796,9.1589,6.4176,23.2359,-12.4058,21.4236,13.7756,13.8054,0.0
1741737602.192000,548,-2.8109,5.3271,-24.8514,20.1578,-25.3311,25.4531,16.8611,20.0411,10.8099,4.8274,2.9883,24.9547,-14.8372,23.4304,12.4348,11.7559,0.0
1741737602.196000,549,-3.3611,1.1535,-26.8033,25.5752,-24.5207,24.3900,15.0405,18.7793,8.3325,3.8738,-0.8169,26.9620,-16.1023,21.6477,7.6092,11.7164,0.0
1741737602.200000,550,-5.9318,-0.2995,-27.1540,24.6805,-26.1787,26.2496,11.5991,20.0206,8.3816,1.2896,-1.4447,26.6336,-17.6786,22.2560,6.2375,11.4754,0.0
1741737602.204000,551,-4.9109,-4.1876,-26.1309,27.3651,-26.9443,23.5465,10.7591,21.2276,3.3960,-1.3834,-5.4160,25.6156,-19.6193,21.0084,2.3907,10.1504,0.0
1741737602.208000,552,-6.3047,-6.4750,-25.9203,25.5566,-26.9068,20.9053,5.5392,21.3753,0.5403,-1.0871,-4.8562,22.2942,-19.8600,20.9954,1.9406,10.2631,0.0
1741737602.212000,553,-7.3198,-8.3609,-27.1219,27.6804,-28.3961,19.0043,4.8153,19.8569,-0.2877,-2.6634,-8.5673,24.5023,-21.9904,19.4662,2.5322,8.9144,0.0
1741737602.216000,554,-10.3969,-9.0455,-28.4332,27.5198,-25.8014,20.1480,2.4478,20.7681,-2.1186,-4.5025,-11.2501,23.0153,-21.7157,19.3383,-0.5795,5.6381,0.0
1741737602.220000,555,-10.3172,-9.5921,-26.4734,27.9763,-26.1676,23.2139,-1.0225,19.0748,-4.5919,-5.1659,-12.7328,22.5226,-23.8865,14.9725,0.3226,4.8733,0.0
1741737602.224000,556,-14.5812,-12.1081,-28.9947,27.3744,-27.0134,19.5746,-1.1810,20.4493,-4.1027,-3.5088,-15.7256,23.6710,-27.7080,12.9652,-1.3502,3.6238,0.0
1741737602.228000,557,-15.3119,-14.9331,-30.7986,27.0462,-27.2097,20.1765,-1.7499,18.7086,-5.2089,-3.6358,-20.8013,20.7934,-27.8578,11.6095,-2.6724,1.3762,0.0
1741737602.232000,558,-18.3333,-14.7950,-30.2430,28.5647,-25.0129,21.5648,-0.8510,17.1970,-5.0083,-5.1387,-22.7548,20.7991,-29.0223,11.5444,-5.6546,-3.7308,0.0
1741737602.236000,559,-19.8952,-13.7018,-32.4256,26.7908,-26.3243,22.2550,-1.3575,13.7353,-6.6526,-6.2324,-22.6418,23.8857,-28.0686,12.9995,-2.5504,-5.6323,0.0
1741737602.240000,560,-23.9651,-16.8052,-32.6274,26.9723,-24.0257,20.5433,-2.9171,11.7382,-8.7115,-3.3495,-22.9621,22.6510,-25.3615,8.7745,-4.5591,-6.8144,0.0
1741737602.244000,561,-25.8600,-18.4217,-32.4677,26.7873,-23.9735,18.2985,-5.3437,13.3463,-7.9266,-3.8032,-25.7095,20.8384,-29.0350,5.2695,-9.3236,-7.4672,0.0
1741737602.248000,562,-25.8880,-19.9840,-33.5238,24.6964,-23.6049,18.3872,-7.1308,10.9572,-6.9511,-4.8288,-26.0666,19.7113,-26.7430,9.2518,-10.8407,-11.3886,0.0
1741737602.252000,563,-28.4513,-19.4124,-31.6656,25.2019,-20.7772,20.1083,-5.2257,12.0309,-9.0220,-6.9035,-27.8348,18.0172,-27.0640,4.9443,-13.2540,-12.5309,0.0
1741737602.256000,564,-28.6559,-22.7472,-32.7565,21.2361,-20.9995,17.0861,-7.5581,10.8838,-8.7526,-7.1930,-28.8088,16.8962,-29.1465,4.7481,-14.1231,-12.4148,0.0
1741737602.260000,565,-29.0505,-25.0921,-31.4620,20.7568,-17.8763,12.3973,-8.4574,11.4171,-8.8249,-7.8515,-32.7300,13.3730,-25.2932,3.0236,-15.6992,-13.6122,0.0
1741737602.264000,566,-32.4032,-27.2908,-30.5872,15.5509,-15.4688,10.2778,-11.8543,10.0015,-11.7409,-8.9473,-30.7872,12.3401,-25.5052,3.2942,-16.9608,-13.9290,0.0
1741737602.268000,567,-29.2286,-24.4297,-26.0875,14.7602,-14.4413,9.9512,-15.0016,10.3672,-11.8187,-14.3530,-34.1547,11.3956,-24.3302,1.1314,-21.1559,-16.6258,0.0
1741737602.272000,568,-30.8745,-25.2268,-25.8375,12.3918,-11.6448,6.6428,-18.2687,8.8827,-17.8204,-14.8538,-36.0168,7.8914,-24.2038,-3.1132,-21.4093,-14.1521,0.0
1741737602.276000,569,-30.3867,-24.6911,-24.5891,10.9163,-10.1771,5.2234,-19.7650,8.6758,-18.0193,-16.2017,-37.3519,3.0947,-21.8805,-4.9698,-20.7141,-14.4535,0.0
1741737602.280000,570,-32.1116,-25.0555,-25.3982,5.1979,-10.1215,2.8601,-23.6362,9.4235,-20.4485,-17.1469,-37.1495,4.2969,-22.3935,-6.0734,-22.7717,-14.7558,0.0
1741737602.284000,571,-31.0252,-25.5125,-22.8445,5.3277,-7.3439,-0.2952,-23.2068,5.3558,-20.0863,-21.0024,-34.9586,2.9448,-21.3281,-6.6071,-26.1427,-13.1706,0.0
1741737602.288000,572,-31.1712,-26.1735,-19.4266,4.8090,-7.4083,-0.7036,-23.8435,5.7396,-22.9148,-19.7828,-35.4876,-1.0494,-19.1899,-8.7479,-24.4895,-18.1028,0.0
1741737602.292000,573,-31.4607,-22.8711,-19.7744,3.1876,-5.9449,-1.8560,-25.3019,3.9545,-21.3339,-22.2592,-35.1223,-5.2253,-17.7132,-12.2453,-24.2882,-16.0931,0.0
1741737602.296000,574,-29.0883,-22.2075,-17.9487,-1.8132,-6.7748,-4.0027,-26.7841,5.2514,-23.3690,-22.1154,-32.7729,-9.8611,-17.6181,-15.0025,-24.5981,-16.6212,0.0
1741737602.300000,575,-30.7393,-23.8901,-15.0249,-2.6215,-5.6276,-5.0702,-23.8640,1.5393,-24.5515,-22.1908,-30.3155,-9.4672,-16.8636,-13.5935,-25.7744,-16.8304,0.0
1741737602.304000,576,-30.1932,-22.1675,-11.8747,-3.5933,-2.2107,-5.8921,-24.7443,-2.1614,-24.1829,-22.3681,-28.9205,-10.9252,-12.2756,-18.3121,-23.2186,-17.8775,0.0
1741737602.308000,577,-27.9219,-25.2189,-9.9610,-8.6448,-2.0333,-6.2580,-26.4219,-4.9984,-25.3517,-20.7633,-28.7085,-14.9434,-11.6711,-18.9898,-23.9606,-16.3345,0.0
1741737602.312000,578,-27.8891,-25.7347,-7.0316,-9.5649,-1.6262,-5.3240,-22.3645,-6.6078,-22.7965,-22.0568,-26.9814,-17.0284,-12.1642,-21.3306,-22.8224,-17.0553,0.0
1741737602.316000,579,-26.4525,-25.5831,-3.1215,-11.7117,2.7546,-9.3676,-23.7310,-11.0167,-25.9922,-21.3157,-23.8556,-19.4053,-9.7783,-22.1227,-23.3316,-20.6433,0.0
1741737602.320000,580,-24.4155,-26.2075,0.7257,-11.4805,5.2727,-8.6146,-23.0201,-13.1616,-24.5095,-19.9727,-21.0239,-20.9286,-10.6300,-21.1171,-20.7616,-17.7350,0.0
1741737602.324000,581,-21.7305,-26.1182,2.7843,-13.5560,4.2026,-10.5546,-22.6204,-17.3437,-24.2240,-17.7853,-20.5408,-23.7275,-9.3928,-23.4385,-18.6567,-19.6968,0.0
1741737602.328000,582,-23.0238,-27.1551,5.5624,-18.0536,5.5916,-12.3934,-21.0878,-19.6683,-21.6058,-18.3618,-20.6760,-24.6171,-5.9190,-24.0451,-16.9413,-18.9698,0.0
1741737602.332000,583,-16.2593,-22.9170,8.2291,-16.1958,8.4581,-14.2700,-21.8340,-21.0979,-19.5240,-17.2845,-14.5046,-24.7961,-5.6534,-24.5872,-13.8336,-15.0790,0.0
1741737602.336000,584,-17.0824,-22.0822,11.6180,-16.9981,10.0760,-13.9842,-19.6996,-21.3930,-17.5258,-17.3866,-15.0299,-27.5086,-7.9670,-25.2460,-13.1945,-14.6306,0.0
1741737602.340000,585,-14.9719,-21.0185,10.6318,-15.9941,11.5024,-15.6755,-20.2129,-21.0276,-12.5987,-16.0706,-15.5797,-29.6137,-6.6313,-26.0261,-10.7888,-12.5099,0.0
1741737602.344000,586,-9.6612,-18.1511,12.2710,-15.9453,12.7223,-19.5612,-19.9402,-26.2322,-12.9294,-15.6735,-14.3217,-26.1970,-4.7869,-26.3294,-10.7702,-9.4779,0.0
1741737602.348000,587,-8.7749,-16.9413,12.7263,-17.5658,12.9367,-20.4091,-22.9539,-21.5678,-12.5106,-13.6002,-12.6083,-30.3389,-0.0873,-29.6542,-10.6077,-10.7116,0.0
1741737602.352000,588,-4.9002,-14.6169,15.1040,-17.6697,14.4196,-24.5815,-19.9008,-25.0708,-9.3708,-13.4820,-14.5733,-29.4300,1.1350,-29.5793,-11.3223,-10.8191,0.0
1741737602.356000,589,-2.3096,-10.8518,15.9723,-19.1255,16.6824,-23.3011,-20.5312,-22.9584,-7.3297,-12.8741,-12.5259,-29.9259,1.9960,-32.3788,-9.1930,-7.1016,0.0
1741737602.360000,590,-1.2415,-9.4459,15.8469,-19.6732,17.2307,-25.6177,-19.2691,-25.8492,-5.6729,-11.2978,-13.6405,-33.6576,2.5673,-30.5770,-8.8008,-6.1780,0.0
1741737602.364000,591,1.8167,-5.4481,18.2254,-18.2460,22.2478,-27.4769,-17.6887,-24.3635,-3.1035,-12.0153,-9.6032,-32.0056,6.9077,-27.5057,-7.9671,-4.9507,0.0
1741737602.368000,592,1.6684,-6.2471,19.0932,-22.5150,21.9519,-28.1168,-19.6677,-25.8168,-5.1995,-9.4993,-11.3811,-29.7299,6.3178,-29.6067,-8.4073,-2.8070,0.0
1741737602.372000,593,2.9552,-1.3319,21.9347,-23.6961,23.7539,-32.8135,-20.7555,-24.8328,-1.9517,-7.0824,-6.7576,-30.8656,10.9898,-30.6206,-6.1042,0.7508,0.0
1741737602.376000,594,5.6558,3.7199,22.0267,-25.5394,25.6013,-33.5438,-19.0017,-27.2577,-3.7512,-3.6174,-5.1078,-29.1435,13.8079,-31.0097,-6.6888,0.4259,0.0
1741737602.380000,595,8.4481,6.9524,23.4660,-24.5358,26.9616,-34.3781,-17.8243,-27.4683,-5.8853,-4.9489,-0.6074,-28.7165,15.6380,-30.0092,-6.1465,0.2846,0.0
1741737602.384000,596,10.5861,7.3264,21.8591,-25.0771,28.1501,-35.3140,-15.2814,-27.1402,-4.2048,-3.7662,-2.8430,-28.3644,14.6297,-25.3045,-4.1366,2.0301,0.0
1741737602.388000,597,11.5721,10.2366,22.1909,-27.3738,27.1107,-31.8562,-16.5741,-27.6611,-1.6723,-0.2073,1.6525,-27.5329,17.8877,-23.7597,-1.4212,1.0403,0.0
1741737602.392000,598,13.2129,11.4247,26.9276,-25.8535,30.4245,-31.5771,-13.2148,-26.1934,-0.3776,-0.5706,4.8455,-26.6240,22.4675,-16.9011,-1.5568,1.1139,0.0
1741737602.396000,599,14.6913,16.0184,22.3625,-27.6985,29.1301,-31.8450,-11.5896,-26.7067,-1.2419,3.1506,6.6984,-26.2455,22.3730,-17.0378,1.4732,1.0950,0.0
1741737602.400000,600,16.2693,16.9285,22.7146,-29.3442,29.9840,-30.1337,-9.7934,-24.6962,-0.1655,6.5717,7.9979,-24.7446,23.9852,-11.5543,5.4682,-0.0771,0.0
1741737602.404000,601,17.4772,20.7441,21.2413,-28.6751,27.1720,-28.2097,-5.1043,-23.3219,3.6677,8.7813,12.6960,-23.9207,25.2861,-9.3026,4.4138,1.6995,0.0
1741737602.408000,602,19.3822,22.4481,19.9864,-29.9008,27.0447,-27.0957,-3.4142,-22.6917,3.9229,13.3934,11.7426,-22.9926,30.1136,-5.8782,6.9565,4.0729,0.0
1741737602.412000,603,18.4867,22.1828,20.5251,-30.2074,24.5563,-27.5460,-3.6930,-20.2244,6.6993,16.2688,12.9803,-20.5852,28.7988,-2.2615,7.8141,5.0564,0.0
1741737602.416000,604,19.8004,26.1010,20.2265,-30.1019,25.3374,-27.3825,0.2539,-18.7821,8.8663,19.6665,13.9069,-17.1348,28.5390,-0.9696,12.1125,5.2021,0.0
1741737602.420000,605,19.8612,28.0554,18.3072,-29.2657,26.0075,-22.2669,4.1497,-15.1750,10.9458,18.7411,15.6251,-16.2078,28.5519,1.2021,12.7256,4.3992,0.0
1741737602.424000,606,19.6587,27.6770,16.6549,-30.0117,25.6519,-23.2127,4.2638,-15.4033,9.0394,19.7513,15.0778,-17.3813,29.6291,1.1706,14.0902,7.1891,0.0
1741737602.428000,607,16.8940,27.9485,16.3186,-30.0605,23.4174,-21.2239,6.4593,-11.7926,13.1308,21.7428,16.8250,-13.5920,28.7097,2.5983,14.8281,8.5704,0.0
1741737602.432000,608,16.3350,31.7899,17.0993,-30.1425,18.8401,-16.6227,10.8926,-10.3174,15.5310,20.5236,18.3618,-11.9260,26.7761,7.4848,15.6250,11.2001,0.0
1741737602.436000,609,16.3974,31.1451,17.2905,-26.9305,18.2929,-15.9154,13.4335,-9.9584,15.7309,19.9080,21.4001,-8.7739,26.2169,6.0683,19.6287,11.5115,0.0
1741737602.440000,610,17.4399,33.1314,15.2263,-26.2877,14.0000,-12.9687,14.1168,-3.3912,16.9661,20.2466,24.6310,-6.2594,24.4898,8.6474,18.2205,13.8162,0.0
1741737602.444000,611,19.5796,34.3801,11.0938,-23.7048,12.3050,-11.6865,14.2648,-1.9958,12.4726,21.8582,25.0542,-5.2209,25.2289,11.4628,17.6030,16.5623,0.0
1741737602.448000,612,21.7129,34.6990,12.7419,-22.9391,9.1227,-9.4141,16.5877,-0.2402,14.1404,20.4120,26.4449,-6.3003,22.4179,12.7188,21.2921,19.2643,0.0
1741737602.452000,613,21.7320,35.9738,8.7404,-22.5817,8.3382,-7.5861,18.4561,2.8870,13.9932,18.2182,28.4827,-5.9902,25.5056,11.7054,21.1545,20.2475,0.0
1741737602.456000,614,20.4836,36.7781,10.3012,-20.4362,6.1342,-2.5645,17.5625,3.9590,13.7911,17.6939,28.7864,-3.6811,21.1472,15.8034,20.9863,25.5287,0.0
1741737602.460000,615,21.3934,34.8221,10.5279,-17.8348,7.9603,0.9994,19.1372,5.0676,14.5680,16.6969,31.7166,-2.2780,21.6388,15.1322,23.4996,26.9791,0.0
1741737602.464000,616,20.4821,33.3579,11.9045,-15.5876,2.1722,0.7562,19.2321,8.0722,16.4904,19.9490,30.9330,-2.3331,18.5415,15.7370,25.5672,27.0747,0.0
1741737602.468000,617,23.9510,31.6911,12.4078,-10.0366,0.0474,5.1459,21.6188,6.0805,15.7975,18.2554,33.0854,-0.1789,18.1197,14.9910,27.8652,26.7976,0.0
1741737602.472000,618,22.8943,29.0583,9.2433,-12.9599,-2.0257,7.3700,22.9491,8.0054,14.8854,15.8418,31.7194,0.7075,16.0613,16.7038,27.0559,27.1322,0.0
1741737602.476000,619,21.7076,26.8594,11.0062,-5.7337,-2.3719,10.3164,25.4576,5.9240,17.7741,16.6448,32.9888,1.8153,13.0669,16.9773,26.6522,25.7274,0.0
1741737602.480000,620,22.9121,23.7201,9.7442,-7.0611,-4.0660,11.0341,24.5023,6.7964,16.9127,18.0155,29.9669,3.9697,11.8281,18.2183,30.2634,27.6408,0.0
1741737602.484000,621,22.6830,24.0620,9.1033,-1.9240,-7.1002,15.3946,25.9057,7.6174,17.3124,14.8864,27.9966,7.4640,7.2624,18.8489,28.4706,25.5781,0.0
1741737602.488000,622,21.4056,21.4183,10.0235,2.9229,-7.7554,15.6690,25.1948,6.4117,18.5946,15.5953,29.1983,9.7782,8.8267,21.4743,28.2773,29.1487,0.0
1741737602.492000,623,23.4002,18.0530,7.0592,1.8002,-9.6869,16.5772,26.4167,9.5334,18.9245,17.1925,28.1934,9.8819,3.3448,22.0979,27.9966,26.3821,0.0
1741737602.496000,624,19.2915,15.0541,4.7078,3.5068,-11.2702,17.9677,26.2320,7.7180,19.2478,16.3693,25.3400,13.4312,1.6260,21.1955,29.3282,22.0607,0.0
1741737602.500000,625,20.0559,13.9355,2.9671,9.3702,-14.9260,19.8727,24.9437,11.3078,18.3048,15.5957,26.0282,17.8595,-1.8446,23.7563,28.8238,21.7378,0.0
1741737602.504000,626,16.9726,12.7125,-0.5455,9.7900,-14.9758,23.0303,25.5281,11.3893,18.7759,15.7315,19.9032,19.8643,-5.4247,23.7246,26.3897,23.5933,0.0
1741737602.508000,627,17.9115,8.3899,-2.7525,13.4310,-17.2744,22.6273,24.7755,13.1791,18.3617,15.0921,18.1613,21.8000,-5.6089,23.6934,29.1188,22.7171,0.0
1741737602.512000,628,18.2310,9.4444,-6.3750,17.2845,-15.2878,20.9361,23.2214,14.5324,18.0001,12.3863,14.8618,22.6054,-8.4990,22.2162,22.9845,20.9747,0.0
1741737602.516000,629,12.3696,5.3853,-8.1871,18.0548,-17.0654,18.1245,20.6465,12.1977,19.5235,11.7836,12.6805,23.5279,-10.4757,21.5008,21.2428,21.3952,0.0
1741737602.520000,630,11.2689,6.7579,-7.9182,21.1366,-16.6608,20.8193,18.0917,17.7224,19.9131,13.6817,10.1599,26.3867,-14.6501,20.2510,18.5022,21.0001,0.0
1741737602.524000,631,9.5626,6.9878,-11.8746,25.4769,-15.4943,22.6154,15.9738,16.6773,18.1198,10.9196,5.3185,29.7701,-14.2031,20.4767,16.0526,17.3093,0.0
1741737602.528000,632,7.6463,6.6798,-15.0224,26.5144,-15.8956,22.0462,13.4563,18.2763,15.6302,11.5093,3.0182,32.3780,-12.3586,17.6903,14.2740,17.6523,0.0
1741737602.532000,633,6.8282,3.9405,-16.1796,27.4806,-17.0497,20.1118,13.1345,16.9107,14.0310,9.1946,0.2749,31.3826,-15.1984,18.3082,9.3551,16.9730,0.0
1741737602.536000,634,4.0155,3.1201,-15.9985,26.5364,-15.2832,20.6182,11.8752,18.7758,13.5550,8.5722,-0.5060,34.1572,-14.8072,20.1806,9.9967,18.4991,0.0
1741737602.540000,635,3.3803,2.7848,-18.8590,29.6747,-15.4460,20.8418,9.1713,19.8561,13.1247,7.6640,-3.1522,32.5531,-13.3972,19.3240,5.6888,14.4489,0.0
1741737602.544000,636,3.4090,0.9557,-19.2314,28.7973,-14.1071,22.3626,9.8790,22.1168,9.9637,7.7552,-6.3166,32.5120,-12.0532,17.0275,4.4956,11.2692,0.0
1741737602.548000,637,3.8982,2.2609,-20.8201,29.4282,-13.4447,19.9921,5.9307,19.7468,7.0125,5.4245,-6.6248,33.7116,-13.4476,18.7611,2.9728,11.5758,0.0
1741737602.552000,638,0.7212,1.7439,-22.2005,26.6829,-14.9960,18.9192,7.2469,18.6210,7.6856,4.7957,-7.9247,33.5474,-12.2294,21.2669,3.6423,9.9761,0.0
1741737602.556000,639,-2.9599,-1.0057,-25.7487,27.9157,-11.8740,18.0933,5.1602,21.6517,6.5746,3.3544,-10.1907,34.3392,-12.2959,21.5762,2.3232,9.8233,0.0
1741737602.560000,640,-4.0450,-2.5767,-26.1701,26.0320,-13.4623,18.0577,5.7856,21.0528,3.9240,5.0802,-11.4798,31.6302,-12.3319,21.5833,-0.9267,5.8888,0.0
1741737602.564000,641,-5.7289,-3.6188,-26.3461,25.2454,-12.4651,19.3815,3.8157,20.5091,1.2156,1.9156,-13.5371,33.2324,-14.2043,21.2090,0.5164,3.1505,0.0
1741737602.568000,642,-11.4428,-4.7406,-26.2160,25.1043,-12.4043,15.9530,-2.9003,18.1499,2.4664,3.6254,-15.2517,32.4350,-10.9744,20.8798,-1.9406,2.7557,0.0
1741737602.572000,643,-15.4040,-7.1451,-31.1237,24.7069,-14.0865,17.9113,0.0181,20.6659,-3.3903,4.2078,-18.7278,29.1181,-13.9468,19.3136,-3.7013,1.1007,0.0
1741737602.576000,644,-17.7846,-9.0260,-29.9852,24.4646,-14.1249,20.0225,-1.1353,21.3190,-1.1934,2.8417,-19.0518,28.5602,-15.3509,20.2152,-2.8190,-1.4405,0.0
1741737602.580000,645,-20.6134,-8.7996,-33.7707,23.5019,-14.9080,20.2173,-1.2127,20.2481,-4.7684,0.8153,-19.4872,25.2254,-16.8746,15.4181,-6.0423,-2.7131,0.0
1741737602.584000,646,-21.8740,-10.4132,-31.7340,23.1935,-17.7481,18.9442,-0.2221,19.9561,-5.4135,-1.2288,-19.0576,23.9891,-18.3215,16.0645,-7.4818,-6.3492,0.0
1741737602.588000,647,-22.4735,-12.9207,-29.4368,25.5048,-17.1236,21.5307,-1.3043,18.7310,-7.8700,-0.9334,-17.4106,21.8960,-15.7326,13.7154,-9.9112,-6.2245,0.0
1741737602.592000,648,-25.5194,-10.4598,-31.7102,20.1678,-16.5009,20.4250,-3.1976,18.7253,-8.1842,-2.7139,-20.1019,17.7238,-17.3973,10.0868,-10.8956,-6.8323,0.0
1741737602.596000,649,-28.5245,-13.9913,-28.5031,20.4423,-14.6182,17.5625,-1.9351,17.3037,-10.5966,-7.8113,-20.6753,13.7689,-15.5250,10.2991,-14.3956,-9.2932,0.0
1741737602.600000,650,-30.9639,-14.9189,-28.1166,18.4254,-16.5192,18.9861,-4.8288,16.5394,-12.5569,-10.6473,-18.0802,13.9496,-17.6535,5.4265,-13.9774,-8.4631,0.0
1741737602.604000,651,-31.6681,-18.8741,-29.5339,16.8926,-15.9342,17.5825,-5.3206,15.4531,-12.0436,-8.5363,-22.1933,10.4744,-18.0681,2.5638,-13.1897,-8.5904,0.0
1741737602.608000,652,-28.5684,-19.8991,-23.7825,14.5702,-15.4833,14.2983,-7.2076,14.5792,-15.8591,-10.0415,-23.0953,9.6552,-18.8458,2.7003,-15.2264,-5.5595,0.0
1741737602.612000,653,-31.0309,-19.9555,-21.8081,12.8538,-16.5334,15.5971,-8.2729,13.5510,-16.7291,-13.9712,-22.8689,3.7042,-20.2208,-1.3985,-14.7301,-4.7800,0.0
1741737602.616000,654,-29.4608,-18.1424,-19.4457,11.0742,-15.2422,12.8258,-9.0313,10.1501,-15.0914,-12.0047,-21.3298,1.9249,-19.7377,-2.2458,-15.9129,-4.4365,0.0
1741737602.620000,655,-30.4699,-20.0371,-17.2420,11.4322,-11.0696,12.5844,-10.6589,8.4606,-19.3738,-12.9459,-19.9719,1.0890,-17.4436,-2.7439,-13.3097,-6.4667,0.0
1741737602.624000,656,-28.9311,-22.3060,-16.5831,8.6474,-10.8194,10.1085,-12.0707,9.0980,-19.6467,-15.6632,-20.7452,-2.6501,-20.0622,-5.5420,-13.0276,-7.2444,0.0
1741737602.628000,657,-27.6069,-22.2471,-15.2038,11.2052,-9.9471,8.8346,-14.0431,8.1577,-19.3000,-14.4522,-19.7975,-5.3577,-19.3337,-7.5325,-10.9287,-6.7987,0.0
1741737602.632000,658,-26.0359,-21.5868,-13.0028,10.9616,-10.7159,6.7929,-14.9276,5.0311,-21.5089,-16.6440,-20.0231,-6.4654,-18.2370,-8.9574,-13.0183,-7.9100,0.0
1741737602.636000,659,-24.3026,-20.8874,-13.8741,7.0936,-11.4289,9.5754,-14.9962,3.2195,-19.2913,-17.5379,-19.0703,-8.4749,-17.6553,-10.7590,-10.7967,-6.7978,0.0
1741737602.640000,660,-23.3121,-22.0593,-10.1268,8.4831,-8.8526,8.1717,-16.2529,-1.9173,-19.6204,-17.2124,-20.5325,-10.9418,-19.5080,-11.8794,-12.1586,-7.4629,0.0
1741737602.644000,661,-21.5465,-23.2429,-8.9490,8.5346,-8.3897,6.6400,-14.6535,-2.9322,-18.6966,-17.9007,-20.6515,-11.1891,-19.5711,-12.0166,-11.4755,-8.0881,0.0
1741737602.648000,662,-19.5410,-19.6186,-6.0739,8.6252,-4.6779,4.1122,-15.5527,-3.9583,-16.7140,-15.9092,-19.9819,-11.0075,-12.8303,-15.0195,-12.4862,-8.6287,0.0
1741737602.652000,663,-17.7480,-22.2001,-4.0121,6.8268,-4.2514,1.5376,-17.4763,-6.5557,-16.0881,-15.9779,-20.3428,-12.4114,-14.9068,-18.8940,-12.1503,-9.8927,0.0
1741737602.656000,664,-14.6865,-22.3202,-1.1265,4.4217,-3.2069,-1.2701,-18.8282,-11.2261,-15.5458,-16.5078,-21.4232,-15.4573,-13.8578,-18.5577,-12.3730,-10.9380,0.0
1741737602.660000,665,-14.7509,-22.8466,1.5121,3.3768,0.1766,-3.1976,-16.6581,-10.4277,-15.6521,-16.1597,-20.3620,-12.7770,-12.7669,-17.5412,-12.0565,-10.1277,0.0
1741737602.664000,666,-13.3906,-24.5832,1.4911,0.8644,1.8115,-4.3780,-19.7182,-12.3637,-11.7541,-14.1479,-21.7890,-14.3689,-10.7474,-20.4420,-14.2427,-10.0922,0.0
1741737602.668000,667,-12.6524,-22.7107,2.1296,-1.4883,2.3320,-8.1051,-19.0737,-17.6711,-10.7505,-14.0746,-20.7129,-16.2685,-11.2384,-20.5231,-13.4551,-9.5787,0.0
1741737602.672000,668,-12.9065,-19.9007,4.0440,-1.6570,7.6708,-11.8303,-19.0731,-15.4502,-8.6936,-12.7389,-21.1965,-15.6217,-9.5129,-21.4679,-14.1520,-8.4712,0.0
1741737602.676000,669,-10.5597,-18.8293,0.5089,-3.7222,6.3847,-15.1286,-21.2758,-16.3394,-8.4303,-13.5637,-18.5920,-17.7861,-6.1718,-22.3380,-14.0737,-8.5659,0.0
1741737602.680000,670,-9.5262,-16.8238,2.4677,-4.4083,8.6325,-16.6285,-21.7000,-16.9846,-6.0058,-11.8421,-17.6603,-16.6107,-5.8784,-21.3013,-15.8445,-10.0433,0.0
1741737602.684000,671,-7.0560,-14.0097,2.8779,-9.6007,7.6520,-19.2955,-19.2335,-18.2466,-9.3280,-12.3626,-16.3821,-17.9388,-4.4945,-21.2519,-15.4045,-8.8844,0.0
1741737602.688000,672,-8.3953,-12.9211,4.3352,-7.3375,10.3455,-20.1439,-20.1881,-16.9046,-7.7308,-10.8018,-15.0365,-17.1642,-3.3404,-18.3094,-16.8127,-8.0392,0.0
1741737602.692000,673,-3.3766,-6.9667,4.7700,-9.5781,12.3890,-18.8791,-18.6526,-15.8779,-8.3445,-9.7919,-16.1572,-20.1491,-1.8427,-18.2261,-17.4141,-6.5029,0.0
1741737602.696000,674,-2.7889,-5.7039,3.2447,-12.8760,12.1810,-18.4333,-22.5597,-16.3940,-9.6885,-9.6303,-14.9575,-22.2139,1.9837,-17.7225,-15.9943,-11.6402,0.0
1741737602.700000,675,-1.1615,-3.3527,5.9204,-15.6450,15.1018,-19.3594,-20.2729,-17.2994,-7.8703,-5.9152,-10.6753,-21.2976,3.5772,-14.7698,-15.9211,-5.8924,0.0
1741737602.704000,676,-0.1172,-1.4722,6.1305,-17.4506,15.4014,-18.8089,-21.7723,-16.2533,-9.7557,-4.7018,-11.6610,-19.3799,4.0840,-14.7437,-14.4276,-6.7992,0.0
1741737602.708000,677,-0.9049,0.5199,5.2630,-18.8943,14.2839,-20.1864,-21.7478,-16.8552,-9.7666,-0.5773,-9.9658,-17.3521,7.9103,-12.5386,-15.5223,-7.0965,0.0
1741737602.712000,678,-2.6199,1.4570,8.4673,-22.9524,14.9973,-20.9644,-18.0350,-16.5005,-7.3264,-2.3919,-10.0403,-18.5587,10.6230,-13.6694,-13.5525,-7.9856,0.0
1741737602.716000,679,-2.7521,3.3057,3.9903,-25.2998,17.0594,-22.5983,-17.5435,-17.1974,-7.1778,-0.1869,-8.0010,-18.4232,11.8817,-10.1066,-11.0781,-8.9897,0.0
1741737602.720000,680,-1.1304,3.5944,6.2335,-25.6622,16.6509,-21.7872,-13.6601,-17.6240,-6.5250,2.1080,-6.8824,-16.4504,13.3949,-8.7817,-8.8156,-7.0666,0.0
1741737602.724000,681,-1.4327,5.1433,6.2188,-29.5079,17.1813,-20.9585,-10.8585,-18.2231,-6.5745,2.4643,-4.5960,-14.8114,13.6980,-8.2673,-5.7495,-7.1525,0.0
1741737602.728000,682,-2.1451,6.7607,6.9091,-27.4728,12.9697,-19.7739,-10.7891,-15.9456,-3.8261,3.3860,-3.6884,-15.8665,13.9808,-7.1492,-3.1234,-7.6493,0.0
1741737602.732000,683,-1.9689,5.9692,6.1344,-29.2865,13.1944,-21.3026,-5.1178,-15.2864,-5.7731,1.4546,0.7107,-15.6329,14.5406,-5.7745,-3.6554,-4.2039,0.0
1741737602.736000,684,-0.3369,8.2101,5.4989,-29.7260,10.4832,-18.8436,-5.4955,-12.5685,-4.0441,3.9117,3.8364,-16.0393,15.3256,-7.0522,0.3420,-4.0987,0.0
1741737602.740000,685,1.4053,11.4946,4.9020,-29.5071,7.4056,-16.8641,-3.6271,-13.2107,-3.3693,5.5144,5.0972,-14.9887,14.4344,-3.0404,-1.0878,-3.3826,0.0
1741737602.744000,686,1.4512,10.7817,5.1316,-30.8127,5.7358,-17.8216,-1.5186,-14.6319,-3.3129,2.6197,7.8917,-16.8521,11.3684,-3.1056,1.1512,-5.4850,0.0
1741737602.748000,687,4.1556,10.7700,5.9604,-31.3132,4.4720,-14.2360,0.9347,-9.9118,-2.3881,4.5676,8.2619,-18.3428,12.2337,-3.2168,3.8876,-0.4238,0.0
1741737602.752000,688,6.5702,9.6542,6.0027,-29.1647,7.0273,-13.0046,0.9746,-10.7212,-1.8064,2.3023,9.2903,-18.3047,13.4107,-4.9524,2.8877,2.9993,0.0
1741737602.756000,689,6.5205,10.0817,7.5503,-29.5340,5.4131,-12.7170,0.6248,-10.2522,-2.8275,3.3050,11.5676,-17.0211,13.4116,-4.7430,3.3656,2.8944,0.0
1741737602.760000,690,4.8090,10.4730,8.4197,-28.6395,5.0969,-11.7763,1.3020,-9.5738,0.7361,3.0795,8.1592,-20.5720,11.2101,-4.9232,5.0193,7.1185,0.0
1741737602.764000,691,6.3135,9.4619,9.2426,-29.4294,5.8606,-11.9027,0.5034,-8.8627,0.4293,2.9304,11.4650,-18.3024,10.5115,-3.6879,4.8295,9.4780,0.0
1741737602.768000,692,7.5819,9.8365,10.2147,-25.9261,3.3206,-8.6667,3.5843,-8.0843,2.5543,2.1807,11.4404,-15.7706,9.9099,-5.2731,7.9855,10.5461,0.0
1741737602.772000,693,9.4229,8.0665,11.6057,-21.4986,1.9533,-7.6784,4.2800,-7.9408,2.2639,4.1933,12.0620,-13.5788,9.2747,-4.7578,8.8625,10.0732,0.0
1741737602.776000,694,9.5646,8.0413,12.7436,-24.3965,3.1854,-10.1687,4.8044,-9.0354,2.3321,0.4367,14.7780,-13.1160,7.1852,-6.0629,10.4820,10.6608,0.0
1741737602.780000,695,10.3072,8.7196,10.8475,-21.3278,1.4940,-7.5952,7.4322,-11.9456,2.4343,0.9770,12.9284,-11.7863,7.8137,-3.6046,10.1359,13.5875,0.0
1741737602.784000,696,12.5553,6.3761,13.0606,-20.4058,3.9136,-8.3726,6.1221,-9.3089,2.0097,-0.8498,14.7660,-10.2023,8.8630,-4.8823,14.2806,14.3458,0.0
1741737602.788000,697,13.0121,7.2172,15.7168,-16.7859,1.1507,-8.5543,7.4969,-10.8586,4.1318,-0.1602,15.3656,-10.3423,4.5762,-2.7539,12.3126,14.8945,0.0
1741737602.792000,698,15.1217,7.0573,14.2127,-16.4268,-0.0583,-5.8100,7.6793,-11.4117,5.1245,-0.6850,17.1084,-10.1373,3.0544,-2.2551,15.2107,17.1730,0.0
1741737602.796000,699,16.3612,4.2009,13.0482,-11.5283,0.4128,-3.3412,5.7114,-8.6087,9.7536,1.2027,16.3688,-8.1449,2.6661,-1.8400,15.5095,15.9103,0.0
1741737602.800000,700,16.8653,3.7343,14.1908,-12.6542,1.6897,-1.5640,7.4627,-9.8982,6.7880,5.2321,15.3465,-4.9492,3.4954,0.5992,15.8625,15.1794,0.0
1741737602.804000,701,18.6597,4.3328,11.0472,-7.5901,0.1968,-1.1319,8.4710,-11.3275,6.7700,4.5096,13.3359,-2.2395,2.0618,2.6669,14.2507,11.2619,0.0
1741737602.808000,702,17.1483,4.6723,10.6972,-5.9028,-0.2732,0.1939,7.2909,-8.8071,9.3842,4.0827,12.6590,-2.6128,0.8677,3.3306,14.8634,11.4939,0.0
1741737602.812000,703,16.8010,4.3725,7.1401,-3.9848,0.2084,-0.7074,7.0109,-11.5690,10.4944,7.2877,8.9332,3.0623,-0.3050,3.4851,14.4578,13.2293,0.0
1741737602.816000,704,14.9777,5.0609,6.7505,-0.8730,-1.5262,-1.7008,4.1375,-6.7941,10.3432,7.9071,9.8017,1.0946,-2.2700,1.7445,14.2749,10.9036,0.0
1741737602.820000,705,15.0219,4.6487,4.2407,1.9553,0.4434,0.7273,9.0057,-8.4463,14.5217,8.5642,5.6683,4.9685,-2.0696,3.0219,12.6924,10.7724,0.0
1741737602.824000,706,13.8053,5.0842,2.7018,3.9315,1.7943,2.5166,7.3786,-4.3751,17.6035,9.8861,4.8772,10.1739,-1.9968,3.0577,12.9773,9.7631,0.0
1741737602.828000,707,11.4695,7.5559,0.9140,6.7994,1.1510,2.1296,5.0856,-6.5039,16.9377,11.2308,2.4183,12.1183,-2.3590,6.6489,11.1350,10.7135,0.0
1741737602.832000,708,10.9401,4.9878,0.1640,7.9696,2.9460,1.1509,5.7116,-3.0507,16.3210,11.3882,0.2246,15.0702,-3.3850,4.7145,6.2291,8.7687,0.0
1741737602.836000,709,10.8953,5.1800,-4.4743,6.7289,3.7121,-0.6005,5.0389,-3.9174,14.4884,11.0567,0.5759,13.0903,0.2807,5.4683,6.2551,9.6922,0.0
1741737602.840000,710,9.0258,5.7049,-5.5080,9.3365,2.4843,0.8562,4.1732,1.0404,11.4810,9.9578,-0.0404,15.6993,-0.7124,8.5730,6.6308,8.9236,0.0
1741737602.844000,711,11.2210,9.2041,-6.4950,9.0472,3.1938,-2.4587,4.0442,0.5014,13.3479,8.5428,-2.2058,14.7096,0.8900,9.9364,5.7223,8.5975,0.0
1741737602.848000,712,8.0488,9.2655,-4.3389,6.8778,5.4114,-3.8471,3.7811,4.1778,11.5848,9.8170,-1.8230,16.8270,1.0895,11.6771,4.5783,9.7493,0.0
1741737602.852000,713,7.5787,10.8103,-7.9878,7.2829,6.9791,-2.6273,4.5157,3.4302,9.7959,8.1010,-1.1880,15.4423,2.3380,13.4055,2.3886,7.4182,0.0
1741737602.856000,714,6.1890,12.9673,-7.2490,6.4996,5.8889,-0.1716,5.1359,6.4997,6.0122,9.3069,-1.0275,14.4006,3.3669,13.5601,2.7577,9.1564,0.0
1741737602.860000,715,6.2904,13.5637,-8.5795,8.1345,5.6257,-1.8383,1.9930,8.8669,6.1028,7.0584,-1.9383,16.6512,1.5340,15.2552,0.9768,8.5019,0.0
1741737602.864000,716,3.8999,15.0748,-10.2737,8.4978,5.8314,2.1074,4.4683,6.3417,3.3147,7.6260,-0.1298,13.9267,3.7243,17.0392,-0.2393,9.5766,0.0
1741737602.868000,717,4.7397,15.9999,-9.7899,12.0190,4.4650,1.2147,3.8010,10.0423,3.1701,8.9248,-2.3827,15.6098,5.3755,15.6762,0.0515,4.4960,0.0
1741737602.872000,718,1.2345,16.5447,-9.5476,9.1774,4.9774,3.2374,3.5446,12.3725,-1.1628,7.7321,-0.6780,13.7233,6.3991,17.3583,0.9945,3.4102,0.0
1741737602.876000,719,-0.3601,14.8240,-12.5000,13.2555,4.2798,6.3744,2.8100,11.1522,0.0302,10.1334,-0.4997,13.4611,6.7598,19.7186,1.3124,3.0758,0.0
1741737602.880000,720,-2.5452,13.9800,-12.5405,9.0773,1.8112,8.7934,3.8218,11.2639,-2.2775,9.1539,-2.1853,13.1313,6.6286,20.4787,0.7969,2.1815,0.0
1741737602.884000,721,-3.1677,12.9385,-11.1529,8.3098,2.6308,8.5799,7.0172,11.0964,-1.4833,8.8087,-0.2314,13.7434,4.2886,19.1470,2.2028,1.6892,0.0
1741737602.888000,722,-5.8987,8.7372,-11.5774,8.2770,0.7752,12.4367,7.4073,12.7309,-0.8153,9.4865,2.2383,14.2995,5.1299,18.8261,1.3657,-0.0395,0.0
1741737602.892000,723,-6.5011,11.1883,-10.2298,9.4456,-0.6454,10.9880,6.8295,14.3927,-3.1937,11.3951,1.5829,12.7589,2.3201,20.0841,3.6286,-1.6967,0.0
1741737602.896000,724,-9.7831,9.3354,-11.2457,6.2726,-2.1403,12.0825,6.4912,13.0553,-2.6039,8.2569,-1.2211,10.0754,5.4878,20.4150,3.7534,-0.3265,0.0
1741737602.900000,725,-10.8787,6.4448,-10.4089,5.7651,-1.3898,13.3830,10.3305,13.1041,-2.4955,10.9995,0.9319,10.9747,6.8745,19.1153,5.2802,-0.7795,0.0
1741737602.904000,726,-10.0560,4.2935,-11.5107,4.9234,-2.2331,14.2139,9.1767,11.4410,-2.0583,9.3977,0.9490,10.8291,0.1813,17.8515,5.3063,-0.7414,0.0
1741737602.908000,727,-10.6390,4.2165,-10.3497,6.4039,-5.1721,15.3721,8.8262,14.9355,-3.6252,6.0333,3.6453,9.1090,0.9218,16.0825,4.1650,0.8242,0.0
1741737602.912000,728,-9.2372,6.4862,-8.3539,7.8735,-4.0192,15.2587,11.8400,12.9437,-3.8373,6.4304,4.2429,7.1036,0.4761,15.9202,3.6935,2.0273,0.0
1741737602.916000,729,-10.5958,6.9909,-8.5291,8.1269,-6.1827,18.7837,9.5663,13.4582,-4.6949,2.6935,5.4168,3.7911,-2.3740,12.7568,5.0246,0.7819,0.0
1741737602.920000,730,-9.1677,5.9132,-8.1611,9.6977,-5.6365,18.5146,8.4733,13.4845,-4.1166,1.2248,4.6017,2.7734,-0.4802,13.2292,6.4393,1.4371,0.0
1741737602.924000,731,-7.3738,5.4530,-6.6700,12.2836,-4.7512,20.2698,11.0496,13.4454,-1.5955,-1.1315,3.2273,4.8727,-1.9400,11.0162,5.3003,4.9798,0.0
1741737602.928000,732,-5.4690,4.1344,-6.1852,14.1784,-7.4650,20.1422,8.6454,11.9605,-3.2574,-2.0026,4.0281,2.1170,-3.0113,9.7712,5.2356,4.8243,0.0
1741737602.932000,733,-4.4860,6.2234,-4.0342,11.5915,-6.3073,20.4940,7.2046,11.7108,-4.3550,-3.3155,3.0315,0.7024,-4.3839,9.6366,2.7593,5.1813,0.0
1741737602.936000,734,-2.6552,1.6274,-3.6513,8.9833,-5.9015,16.7274,6.9669,11.5215,-3.1363,-6.4206,1.8003,-1.3256,-6.3709,5.0527,3.8740,5.7263,0.0
1741737602.940000,735,-0.9113,3.0445,-1.0843,10.0283,-4.3048,17.0898,6.0006,10.7468,-2.7119,-3.7716,1.3337,0.4329,-4.7467,4.5205,4.9755,9.2005,0.0
1741737602.944000,736,-0.2590,-0.9811,0.6315,7.2888,-4.2737,13.7276,3.9441,9.5146,-2.3344,-3.8612,1.2288,0.6055,-4.5368,3.6851,4.4149,8.4258,0.0
1741737602.948000,737,0.9010,-3.9044,3.7758,7.2211,-4.0447,13.7195,2.4777,10.3533,0.3658,-2.8169,-0.5596,-0.9648,-1.3679,2.9242,3.4245,9.7757,0.0
1741737602.952000,738,-0.3484,-6.7809,3.4236,4.3707,-2.5114,10.7627,1.6826,5.6537,-3.9999,-7.0258,-0.3713,-3.2568,-2.3455,-0.0247,3.1302,7.8936,0.0
1741737602.956000,739,0.0139,-6.4351,4.8771,2.5320,-1.2537,7.9887,0.2060,3.9851,-1.8016,-6.2084,-1.2625,0.6149,-2.2217,-0.0529,7.8938,7.3190,0.0
1741737602.960000,740,3.2884,-5.5753,5.5383,3.2680,-2.2061,6.4900,-2.2248,-1.0069,-0.4176,-5.6542,0.9835,1.6381,-2.8256,-1.3088,3.9573,5.8686,0.0
1741737602.964000,741,4.4463,-6.3818,6.4066,3.8269,1.2842,7.4631,-0.0383,-0.2858,-2.0389,-4.7008,-1.3991,1.7709,-4.5319,-2.6185,4.7165,8.0228,0.0
1741737602.968000,742,5.2869,-5.4784,8.0178,3.5741,-0.5249,7.6395,-1.4690,-1.0306,-2.1357,-5.5489,-4.0724,1.6815,-5.5872,0.7296,5.2924,4.5685,0.0
1741737602.972000,743,4.0454,-3.8867,1.6971,5.1047,-0.7732,5.2039,-0.8990,-2.5317,-1.8171,-5.9316,-1.7173,3.5692,-8.2938,-1.2743,3.8249,3.3819,0.0
1741737602.976000,744,3.3918,-3.6079,3.2242,3.2879,-2.6536,2.4335,-0.7601,-3.2823,-0.7051,-4.5866,-3.2866,2.3106,-7.8845,-1.7989,4.9959,0.6284,0.0
1741737602.980000,745,5.3359,-2.3197,1.5513,8.6541,-3.3790,4.7177,-2.0049,-2.6802,-0.8737,-5.1085,-4.1848,4.3699,-7.7641,-2.9390,2.5543,0.2338,0.0
1741737602.984000,746,3.5240,-2.6157,-1.8386,6.2802,-5.0052,5.0761,-3.0987,-4.0419,-1.4564,-0.6182,-6.4096,6.5733,-7.9628,0.9626,0.6320,-1.5180,0.0
1741737602.988000,747,5.5598,-1.9359,-5.5642,4.8909,-5.3909,4.8563,0.4496,-2.9244,0.9870,-0.9056,-7.6323,3.3674,-5.4018,-0.5508,2.3074,-2.3065,0.0
1741737602.992000,748,3.8054,-4.5353,-5.3140,4.7204,-6.8085,4.2426,0.7788,-1.7450,3.0482,-1.1006,-7.2635,6.3510,-5.4305,0.1360,-0.8753,-2.6745,0.0
1741737602.996000,749,3.3554,-2.1622,-5.2832,3.0512,-7.7365,1.2886,-4.6176,-3.4424,2.2538,-1.2294,-7.2471,4.1777,-4.3672,-3.1893,-3.8348,-3.6015,0.0
1741737603.000000,750,-1.2188,-3.2566,-6.9319,3.9408,-3.4071,0.4915,-3.0762,-1.4114,4.9884,1.0399,-7.1577,6.3400,-4.3292,-2.0967,-3.8536,-2.6466,0.0
1741737603.004000,751,0.1938,-1.6986,-4.2936,1.3250,-0.0917,0.8090,-1.0058,-2.0798,5.3971,1.1134,-9.7381,8.0424,-0.2612,-3.3049,-4.9818,-1.1420,0.0
1741737603.008000,752,-3.5956,-3.5448,-4.1076,-0.5239,1.4998,0.1391,-1.3083,-2.5868,5.1915,-0.0866,-8.7965,7.0662,-0.8105,-0.6736,-4.5390,-0.8179,0.0
1741737603.012000,753,-0.7257,-4.1323,-3.9315,-1.9843,4.7373,0.2427,0.8469,-1.7656,3.2753,0.5244,-7.3679,6.6991,0.7170,-1.5012,-1.5239,-0.4361,0.0
1741737603.016000,754,-1.4049,-3.1418,-4.1342,-3.0254,3.8645,-1.5048,-0.9260,-1.8871,3.0795,-0.9884,-8.5244,4.8356,1.1662,-1.4056,-0.8620,-0.4036,0.0
1741737603.020000,755,-2.6656,-1.4074,-4.4575,-4.5198,2.6239,-2.6572,-2.3015,0.3132,0.7645,-2.2294,-7.0702,4.9655,0.0064,0.2782,-2.2395,-1.2296,0.0
1741737603.024000,756,-2.9921,-0.6976,-4.8343,-5.1614,2.4072,-4.4138,-2.5393,0.2394,-1.3074,-4.1624,-8.4618,5.0592,-0.1747,2.3847,-0.7249,0.5336,0.0
1741737603.028000,757,-0.5236,1.0931,-7.2051,-5.3263,1.5577,-2.7443,-3.0634,2.9244,-2.6963,-3.4546,-5.1239,3.0410,-2.0316,-2.4070,0.0250,0.7691,0.0
1741737603.032000,758,-0.5425,1.6120,-6.9004,-7.2950,1.4205,-3.6190,-4.1084,3.6518,-3.7543,-3.2605,-5.2588,1.3315,-1.7371,-1.3300,1.4197,1.1316,0.0
1741737603.036000,759,-3.6207,2.5988,-10.2355,-6.3426,-3.1033,-2.7567,-7.2265,3.1144,-5.9739,-4.1052,-3.8949,-1.6902,-1.9371,-0.8089,-1.0796,1.3368,0.0
1741737603.040000,760,-0.7214,2.6411,-10.2510,-7.0785,-4.4263,-2.4563,-5.5395,1.2373,-5.4582,-5.4772,-4.4774,-0.0094,-3.4057,0.1615,-3.1798,0.2098,0.0
1741737603.044000,761,-3.8753,1.2228,-13.7640,-8.8526,-7.5073,-3.0078,-7.5921,-0.7810,-4.5355,-0.0993,-3.5323,-0.8725,-2.2770,0.1101,-2.2129,-0.7646,0.0
1741737603.048000,762,-5.4570,1.6367,-13.4193,-6.1944,-9.5137,-6.2035,-5.9700,-3.3727,-3.2483,-1.5644,-4.2230,-1.7297,-1.2069,1.1032,-5.5958,-0.9705,0.0
1741737603.052000,763,-6.3868,0.9542,-14.0001,-8.2185,-10.1102,-6.6122,-3.5308,-2.7590,-6.0579,-0.1483,-3.0029,-3.0892,-3.3302,-2.3487,-6.3045,1.7753,0.0
1741737603.056000,764,-5.6945,-0.7134,-13.9839,-7.2217,-13.0032,-7.2077,-6.0550,-6.3170,-4.0275,-1.4122,-3.3253,-3.3265,-3.6482,-0.9029,-6.8393,-1.2203,0.0
1741737603.060000,765,-10.3395,-3.5603,-12.3993,-9.7481,-10.9587,-5.0811,-6.1266,-6.3380,-3.5294,2.1629,-3.9263,-3.2959,-1.6833,-1.1959,-5.4557,-0.9032,0.0
1741737603.064000,766,-10.7727,-5.0082,-12.8985,-8.4874,-12.1270,-5.9012,-3.7308,-7.8703,-5.1278,0.7714,-4.4006,-2.0622,-2.9450,-3.0889,-5.3483,-6.5496,0.0
1741737603.068000,767,-11.1616,-8.2940,-11.1838,-11.5582,-11.8284,-6.1143,-2.3009,-7.6921,-3.9562,-0.9973,-2.3591,-4.1870,-5.0672,-2.9564,-3.7531,-3.0427,0.0
1741737603.072000,768,-8.2834,-6.3111,-8.5417,-8.7016,-13.3149,-6.3391,-0.6777,-9.1224,-4.7934,1.1212,-3.4229,-2.7438,-6.0519,-2.1113,-5.3659,-5.4588,0.0
1741737603.076000,769,-8.7808,-5.8351,-9.0925,-8.1532,-10.4695,-4.1443,2.8537,-9.1026,-4.7107,-1.4651,-4.6095,-5.3842,-5.2831,-2.3373,-2.2921,-5.1567,0.0
1741737603.080000,770,-12.3778,-7.3259,-10.9589,-5.4323,-8.3379,-1.6243,3.0610,-5.1196,-3.4989,-4.1754,-5.2873,-4.3511,-7.0441,-2.9811,-0.1964,-1.7305,0.0
1741737603.084000,771,-8.4493,-6.6206,-8.3519,-1.3007,-5.2508,0.4414,3.9453,-4.4217,-2.2520,-1.3752,-3.2471,-5.1299,-5.7021,-1.4038,1.9303,-0.6825,0.0
1741737603.088000,772,-7.5115,-7.1144,-7.6709,-0.9745,-2.6198,2.5603,2.9076,-3.8038,-2.8668,-2.8186,-2.3715,-7.5871,-8.4737,-2.8902,3.6140,1.9363,0.0
1741737603.092000,773,-6.6233,-9.8028,-6.2321,1.3410,0.0176,3.0535,2.5083,0.3443,-3.3757,-4.1842,-4.3917,-9.6827,-8.9292,-0.3768,2.8941,4.3117,0.0
1741737603.096000,774,-4.8357,-6.8562,-4.9568,1.9985,1.6356,2.2982,2.5370,1.0393,-4.2211,-3.8406,-3.4727,-6.5050,-8.0397,-2.4607,3.9928,2.2444,0.0
1741737603.100000,775,-4.6237,-3.7205,-4.4067,2.2437,2.6178,2.7460,2.9757,1.3944,-2.4981,-3.7695,-3.1201,-7.2711,-6.3495,-3.7855,5.7084,5.5245,0.0
1741737603.104000,776,-3.6981,-2.2672,-4.5296,6.1163,5.0323,4.3114,1.8884,0.6470,-2.3851,-3.8572,-6.8399,-6.2698,-8.3917,-2.9994,5.5058,5.7691,0.0
1741737603.108000,777,-4.3610,-4.3677,-5.1079,3.9096,4.4583,2.5990,1.0925,1.0650,-3.9118,-3.2591,-8.5692,-6.5886,-5.7086,-6.5617,1.3518,3.0695,0.0
1741737603.112000,778,-3.8002,-3.9987,-6.1321,1.7323,2.0324,2.2394,-2.2504,-1.2370,-2.4600,-2.5655,-8.6541,-5.3290,-5.4027,-5.4078,-0.8912,2.8112,0.0
1741737603.116000,779,-6.6098,-5.9501,-7.5797,2.1464,3.1390,-2.2086,-6.0286,-2.3820,-3.6436,-4.4257,-10.8677,-5.2156,-5.0040,-7.1114,-4.6741,2.0449,0.0
1741737603.120000,780,-6.0645,-4.9470,-6.5388,1.5700,0.3813,-1.3491,-5.6285,-5.0693,-2.0537,-0.7888,-11.6903,-3.7845,-4.2751,-5.3536,-3.2154,0.3293,0.0
1741737603.124000,781,-6.0808,-3.7519,-8.5913,1.0565,2.7907,-4.3342,-5.5350,-6.2059,0.8878,-2.1319,-11.7470,-1.8398,-3.8404,-4.0945,-7.5380,-2.6843,0.0
1741737603.128000,782,-5.3173,-4.9005,-7.9965,-1.8693,-0.6559,-6.0567,-7.5004,-9.0538,-1.3846,-1.4927,-9.5352,0.2469,-4.1774,-3.9866,-11.8826,-1.4913,0.0
1741737603.132000,783,-6.4769,-5.2087,-10.9778,-2.3410,-3.6862,-9.5238,-7.4507,-10.2464,-0.9133,-0.1117,-8.7023,0.6844,-3.6964,-2.6861,-12.5677,-2.9620,0.0
1741737603.136000,784,-6.4039,-4.3822,-11.0029,-4.3029,-3.1804,-11.4967,-11.3086,-9.4912,-2.9531,-1.1909,-7.2022,-0.8724,0.9797,-1.1998,-15.5712,-4.9572,0.0
1741737603.140000,785,-8.7986,-3.7845,-15.7090,-6.5096,-6.3448,-12.3108,-11.4662,-10.7792,-2.6336,1.6022,-6.0280,0.6027,0.5014,1.3886,-15.9753,-5.1485,0.0
1741737603.144000,786,-8.7277,-2.6480,-13.1826,-3.3450,-1.9608,-12.7816,-11.8480,-11.3484,-2.9241,-3.0166,-6.9817,0.3647,0.9939,2.6072,-15.3770,-7.2181,0.0
1741737603.148000,787,-6.8895,-2.9823,-13.3368,-3.8109,-5.1430,-12.6714,-12.3743,-10.6193,-2.6257,0.0648,-7.1758,1.5837,1.7329,2.2207,-13.1411,-6.9211,0.0
